LabVIEW Measurement	
Writer_Version	2
Reader_Version	2
Separator	Tab
Decimal_Separator	.
Multi_Headings	Yes
X_Columns	One
Time_Pref	Absolute
Operator	W-Tunnel
Date	2024/05/22
Time	17:56:40.4353401562498981604
***End_of_Header***	
	
Channels	1	
Samples	10000	
Date	2024/05/23	
Time	15:01:16.3525231812498783974	
Y_Unit_Label	Volts	
X_Dimension	Time	
X0	0.0000000000000000E+0	
Delta_X	0.000488	
***End_of_Header***		
X_Value	Voltage	Comment
0.000000	1.654475
0.000488	1.653991
0.000977	1.654040
0.001465	1.653981
0.001953	1.654198
0.002441	1.654345
0.002930	1.654175
0.003418	1.653915
0.003906	1.653988
0.004395	1.654125
0.004883	1.654081
0.005371	1.653798
0.005859	1.654012
0.006348	1.653994
0.006836	1.654081
0.007324	1.653981
0.007812	1.654002
0.008301	1.654064
0.008789	1.653910
0.009277	1.654109
0.009766	1.654048
0.010254	1.653834
0.010742	1.653764
0.011230	1.654025
0.011719	1.654182
0.012207	1.653986
0.012695	1.654195
0.013184	1.654135
0.013672	1.654375
0.014160	1.653908
0.014648	1.654043
0.015137	1.654155
0.015625	1.654135
0.016113	1.654289
0.016602	1.654218
0.017090	1.654274
0.017578	1.654415
0.018066	1.654345
0.018555	1.654386
0.019043	1.654096
0.019531	1.654347
0.020020	1.654195
0.020508	1.654344
0.020996	1.654307
0.021484	1.654247
0.021973	1.654254
0.022461	1.654160
0.022949	1.654206
0.023437	1.654530
0.023926	1.654475
0.024414	1.654394
0.024902	1.654134
0.025391	1.654153
0.025879	1.654513
0.026367	1.654541
0.026855	1.654239
0.027344	1.654192
0.027832	1.654876
0.028320	1.654695
0.028809	1.654705
0.029297	1.654571
0.029785	1.654622
0.030273	1.654685
0.030762	1.654580
0.031250	1.654616
0.031738	1.654529
0.032227	1.654611
0.032715	1.654820
0.033203	1.654843
0.033691	1.654752
0.034180	1.654721
0.034668	1.654710
0.035156	1.654652
0.035645	1.654878
0.036133	1.654810
0.036621	1.654751
0.037109	1.654789
0.037598	1.654946
0.038086	1.654802
0.038574	1.654947
0.039062	1.654818
0.039551	1.654892
0.040039	1.654923
0.040527	1.654933
0.041016	1.654934
0.041504	1.655138
0.041992	1.654982
0.042480	1.654976
0.042969	1.655144
0.043457	1.655034
0.043945	1.654935
0.044434	1.655280
0.044922	1.655350
0.045410	1.655371
0.045898	1.655084
0.046387	1.654570
0.046875	1.655192
0.047363	1.655216
0.047852	1.655094
0.048340	1.654892
0.048828	1.655266
0.049316	1.655065
0.049805	1.655053
0.050293	1.654937
0.050781	1.654891
0.051270	1.654998
0.051758	1.654914
0.052246	1.654971
0.052734	1.654846
0.053223	1.654857
0.053711	1.655094
0.054199	1.655048
0.054687	1.654978
0.055176	1.655097
0.055664	1.654772
0.056152	1.655091
0.056641	1.655159
0.057129	1.655123
0.057617	1.655130
0.058105	1.655074
0.058594	1.655004
0.059082	1.654915
0.059570	1.655081
0.060059	1.655274
0.060547	1.654824
0.061035	1.654681
0.061523	1.654935
0.062012	1.655087
0.062500	1.655022
0.062988	1.654865
0.063477	1.654578
0.063965	1.654679
0.064453	1.654887
0.064941	1.654651
0.065430	1.654688
0.065918	1.654604
0.066406	1.654724
0.066895	1.654633
0.067383	1.654618
0.067871	1.654414
0.068359	1.654551
0.068848	1.654627
0.069336	1.654661
0.069824	1.654600
0.070312	1.654408
0.070801	1.654652
0.071289	1.654633
0.071777	1.654621
0.072266	1.654528
0.072754	1.654679
0.073242	1.654623
0.073730	1.654644
0.074219	1.654602
0.074707	1.654577
0.075195	1.654461
0.075684	1.654771
0.076172	1.654829
0.076660	1.654591
0.077148	1.654187
0.077637	1.654450
0.078125	1.654621
0.078613	1.654642
0.079102	1.654121
0.079590	1.654495
0.080078	1.654648
0.080566	1.654464
0.081055	1.654481
0.081543	1.654328
0.082031	1.654172
0.082520	1.654555
0.083008	1.654499
0.083496	1.654420
0.083984	1.654424
0.084473	1.654419
0.084961	1.654186
0.085449	1.654389
0.085937	1.654347
0.086426	1.654057
0.086914	1.654225
0.087402	1.654403
0.087891	1.654416
0.088379	1.654447
0.088867	1.654248
0.089355	1.654181
0.089844	1.654470
0.090332	1.654469
0.090820	1.654496
0.091309	1.654213
0.091797	1.654257
0.092285	1.654088
0.092773	1.654132
0.093262	1.654467
0.093750	1.654647
0.094238	1.654035
0.094727	1.654126
0.095215	1.654395
0.095703	1.654521
0.096191	1.654232
0.096680	1.654217
0.097168	1.654135
0.097656	1.654526
0.098145	1.654359
0.098633	1.654164
0.099121	1.654442
0.099609	1.654373
0.100098	1.654314
0.100586	1.654075
0.101074	1.653904
0.101562	1.654251
0.102051	1.654330
0.102539	1.654079
0.103027	1.654114
0.103516	1.654611
0.104004	1.654238
0.104492	1.654336
0.104980	1.654349
0.105469	1.654602
0.105957	1.654326
0.106445	1.654117
0.106934	1.654278
0.107422	1.654470
0.107910	1.654565
0.108398	1.654580
0.108887	1.654548
0.109375	1.654634
0.109863	1.654566
0.110352	1.654595
0.110840	1.654536
0.111328	1.654619
0.111816	1.654798
0.112305	1.654629
0.112793	1.654449
0.113281	1.654500
0.113770	1.654486
0.114258	1.654636
0.114746	1.654817
0.115234	1.654560
0.115723	1.654549
0.116211	1.654369
0.116699	1.654316
0.117187	1.654672
0.117676	1.654766
0.118164	1.654218
0.118652	1.654425
0.119141	1.654774
0.119629	1.654690
0.120117	1.654497
0.120605	1.654450
0.121094	1.654502
0.121582	1.654746
0.122070	1.654713
0.122559	1.654627
0.123047	1.654641
0.123535	1.654613
0.124023	1.654856
0.124512	1.654860
0.125000	1.654682
0.125488	1.654788
0.125977	1.654839
0.126465	1.655221
0.126953	1.654821
0.127441	1.654845
0.127930	1.654529
0.128418	1.654524
0.128906	1.654779
0.129395	1.654654
0.129883	1.654796
0.130371	1.654871
0.130859	1.654690
0.131348	1.654619
0.131836	1.654532
0.132324	1.654629
0.132812	1.654588
0.133301	1.654809
0.133789	1.654557
0.134277	1.654824
0.134766	1.654619
0.135254	1.654712
0.135742	1.654908
0.136230	1.654734
0.136719	1.654808
0.137207	1.654639
0.137695	1.654588
0.138184	1.654485
0.138672	1.654780
0.139160	1.654610
0.139648	1.654676
0.140137	1.654875
0.140625	1.654719
0.141113	1.654779
0.141602	1.654422
0.142090	1.654528
0.142578	1.654562
0.143066	1.654618
0.143555	1.654348
0.144043	1.654503
0.144531	1.654807
0.145020	1.654657
0.145508	1.654675
0.145996	1.654676
0.146484	1.654553
0.146973	1.654562
0.147461	1.654605
0.147949	1.654816
0.148437	1.654693
0.148926	1.654588
0.149414	1.654488
0.149902	1.654497
0.150391	1.654517
0.150879	1.654555
0.151367	1.654325
0.151855	1.654231
0.152344	1.654317
0.152832	1.654406
0.153320	1.654388
0.153809	1.654341
0.154297	1.654148
0.154785	1.654178
0.155273	1.654239
0.155762	1.654109
0.156250	1.654146
0.156738	1.654231
0.157227	1.654087
0.157715	1.654246
0.158203	1.654149
0.158691	1.653929
0.159180	1.654021
0.159668	1.654251
0.160156	1.654156
0.160645	1.654179
0.161133	1.653932
0.161621	1.653970
0.162109	1.654095
0.162598	1.653971
0.163086	1.654067
0.163574	1.654034
0.164062	1.653805
0.164551	1.653904
0.165039	1.654034
0.165527	1.654336
0.166016	1.653892
0.166504	1.653871
0.166992	1.654002
0.167480	1.654184
0.167969	1.653952
0.168457	1.653757
0.168945	1.654055
0.169434	1.654062
0.169922	1.653636
0.170410	1.653696
0.170898	1.653862
0.171387	1.653728
0.171875	1.653834
0.172363	1.653823
0.172852	1.653968
0.173340	1.653718
0.173828	1.653584
0.174316	1.653709
0.174805	1.653780
0.175293	1.653947
0.175781	1.654029
0.176270	1.653929
0.176758	1.653980
0.177246	1.654008
0.177734	1.654110
0.178223	1.653814
0.178711	1.654058
0.179199	1.654256
0.179687	1.654015
0.180176	1.653831
0.180664	1.653938
0.181152	1.653811
0.181641	1.654139
0.182129	1.654134
0.182617	1.653768
0.183105	1.653489
0.183594	1.653866
0.184082	1.653862
0.184570	1.653628
0.185059	1.653761
0.185547	1.653678
0.186035	1.653799
0.186523	1.654009
0.187012	1.653821
0.187500	1.653851
0.187988	1.653788
0.188477	1.653815
0.188965	1.654137
0.189453	1.654217
0.189941	1.653800
0.190430	1.654021
0.190918	1.653946
0.191406	1.654070
0.191895	1.654108
0.192383	1.654071
0.192871	1.653824
0.193359	1.653960
0.193848	1.653963
0.194336	1.653897
0.194824	1.654082
0.195312	1.653894
0.195801	1.653832
0.196289	1.654005
0.196777	1.653976
0.197266	1.654043
0.197754	1.654009
0.198242	1.654012
0.198730	1.654102
0.199219	1.654128
0.199707	1.653841
0.200195	1.653894
0.200684	1.654397
0.201172	1.654363
0.201660	1.654253
0.202148	1.654253
0.202637	1.654251
0.203125	1.654480
0.203613	1.654233
0.204102	1.654283
0.204590	1.654463
0.205078	1.654420
0.205566	1.654612
0.206055	1.654439
0.206543	1.654040
0.207031	1.654334
0.207520	1.654399
0.208008	1.654514
0.208496	1.654295
0.208984	1.654436
0.209473	1.654413
0.209961	1.654245
0.210449	1.654471
0.210937	1.654101
0.211426	1.654169
0.211914	1.654612
0.212402	1.654625
0.212891	1.654511
0.213379	1.654453
0.213867	1.654426
0.214355	1.654539
0.214844	1.654700
0.215332	1.654577
0.215820	1.654675
0.216309	1.654247
0.216797	1.654237
0.217285	1.654574
0.217773	1.654641
0.218262	1.654600
0.218750	1.654524
0.219238	1.654776
0.219727	1.654441
0.220215	1.654520
0.220703	1.654296
0.221191	1.654084
0.221680	1.654475
0.222168	1.654595
0.222656	1.654258
0.223145	1.654214
0.223633	1.654120
0.224121	1.654292
0.224609	1.654469
0.225098	1.654625
0.225586	1.654461
0.226074	1.654380
0.226562	1.654157
0.227051	1.654403
0.227539	1.654768
0.228027	1.654505
0.228516	1.654311
0.229004	1.654530
0.229492	1.654728
0.229980	1.654495
0.230469	1.654511
0.230957	1.654253
0.231445	1.654320
0.231934	1.654547
0.232422	1.654447
0.232910	1.654295
0.233398	1.654290
0.233887	1.654259
0.234375	1.654283
0.234863	1.654314
0.235352	1.654208
0.235840	1.654214
0.236328	1.654101
0.236816	1.654281
0.237305	1.654365
0.237793	1.654311
0.238281	1.653910
0.238770	1.654267
0.239258	1.654630
0.239746	1.654373
0.240234	1.654301
0.240723	1.654117
0.241211	1.654168
0.241699	1.654392
0.242187	1.654362
0.242676	1.654139
0.243164	1.654250
0.243652	1.654508
0.244141	1.654494
0.244629	1.654395
0.245117	1.654287
0.245605	1.654280
0.246094	1.654208
0.246582	1.654393
0.247070	1.654378
0.247559	1.654269
0.248047	1.654395
0.248535	1.654314
0.249023	1.654321
0.249512	1.654062
0.250000	1.654020
0.250488	1.654158
0.250977	1.653879
0.251465	1.654096
0.251953	1.654115
0.252441	1.653738
0.252930	1.653963
0.253418	1.654158
0.253906	1.654060
0.254395	1.654032
0.254883	1.654126
0.255371	1.653962
0.255859	1.654082
0.256348	1.654108
0.256836	1.654285
0.257324	1.654373
0.257812	1.654345
0.258301	1.654295
0.258789	1.654377
0.259277	1.654247
0.259766	1.654352
0.260254	1.654429
0.260742	1.654428
0.261230	1.654248
0.261719	1.654268
0.262207	1.653773
0.262695	1.654086
0.263184	1.654150
0.263672	1.654264
0.264160	1.654131
0.264648	1.654130
0.265137	1.654114
0.265625	1.654223
0.266113	1.654078
0.266602	1.653993
0.267090	1.654138
0.267578	1.654503
0.268066	1.654270
0.268555	1.654194
0.269043	1.654225
0.269531	1.654161
0.270020	1.654418
0.270508	1.654361
0.270996	1.653972
0.271484	1.654077
0.271973	1.654349
0.272461	1.654142
0.272949	1.654189
0.273437	1.654189
0.273926	1.654065
0.274414	1.654220
0.274902	1.654254
0.275391	1.654136
0.275879	1.654076
0.276367	1.654283
0.276855	1.654544
0.277344	1.654381
0.277832	1.654554
0.278320	1.653954
0.278809	1.654041
0.279297	1.654342
0.279785	1.654265
0.280273	1.654519
0.280762	1.654145
0.281250	1.654106
0.281738	1.654239
0.282227	1.654114
0.282715	1.654086
0.283203	1.654054
0.283691	1.654369
0.284180	1.654627
0.284668	1.654517
0.285156	1.654422
0.285645	1.654215
0.286133	1.654242
0.286621	1.654318
0.287109	1.654549
0.287598	1.654614
0.288086	1.654406
0.288574	1.654467
0.289062	1.654604
0.289551	1.654513
0.290039	1.654507
0.290527	1.654519
0.291016	1.654155
0.291504	1.654341
0.291992	1.654373
0.292480	1.654209
0.292969	1.654110
0.293457	1.654337
0.293945	1.654685
0.294434	1.654477
0.294922	1.654443
0.295410	1.654409
0.295898	1.654357
0.296387	1.654686
0.296875	1.654593
0.297363	1.654823
0.297852	1.655059
0.298340	1.654717
0.298828	1.654991
0.299316	1.654384
0.299805	1.654630
0.300293	1.654879
0.300781	1.654630
0.301270	1.654665
0.301758	1.654791
0.302246	1.654950
0.302734	1.654727
0.303223	1.654780
0.303711	1.654777
0.304199	1.654593
0.304687	1.654600
0.305176	1.654713
0.305664	1.654703
0.306152	1.654989
0.306641	1.654907
0.307129	1.654743
0.307617	1.654825
0.308105	1.654924
0.308594	1.654793
0.309082	1.654833
0.309570	1.654867
0.310059	1.654889
0.310547	1.654880
0.311035	1.654912
0.311523	1.654804
0.312012	1.655068
0.312500	1.654726
0.312988	1.654850
0.313477	1.654953
0.313965	1.654802
0.314453	1.654822
0.314941	1.654497
0.315430	1.654673
0.315918	1.654651
0.316406	1.655057
0.316895	1.655015
0.317383	1.654754
0.317871	1.654816
0.318359	1.654686
0.318848	1.654785
0.319336	1.654573
0.319824	1.654430
0.320312	1.654960
0.320801	1.654887
0.321289	1.654608
0.321777	1.654413
0.322266	1.654059
0.322754	1.654594
0.323242	1.654675
0.323730	1.654511
0.324219	1.654226
0.324707	1.654619
0.325195	1.654719
0.325684	1.654587
0.326172	1.654506
0.326660	1.654568
0.327148	1.654692
0.327637	1.654641
0.328125	1.654563
0.328613	1.654234
0.329102	1.654504
0.329590	1.654760
0.330078	1.654719
0.330566	1.654610
0.331055	1.654363
0.331543	1.654471
0.332031	1.654441
0.332520	1.654336
0.333008	1.654794
0.333496	1.654689
0.333984	1.654481
0.334473	1.654356
0.334961	1.654220
0.335449	1.654543
0.335937	1.654332
0.336426	1.654543
0.336914	1.654367
0.337402	1.654743
0.337891	1.654633
0.338379	1.654365
0.338867	1.654406
0.339355	1.654504
0.339844	1.654500
0.340332	1.654784
0.340820	1.654359
0.341309	1.654006
0.341797	1.654356
0.342285	1.654428
0.342773	1.654563
0.343262	1.654223
0.343750	1.654589
0.344238	1.654475
0.344727	1.654367
0.345215	1.654231
0.345703	1.654462
0.346191	1.654248
0.346680	1.654632
0.347168	1.654462
0.347656	1.654375
0.348145	1.654135
0.348633	1.654253
0.349121	1.654488
0.349609	1.654397
0.350098	1.654330
0.350586	1.654321
0.351074	1.654249
0.351562	1.654514
0.352051	1.654710
0.352539	1.654392
0.353027	1.654361
0.353516	1.654197
0.354004	1.654309
0.354492	1.654511
0.354980	1.654565
0.355469	1.654123
0.355957	1.654131
0.356445	1.654586
0.356934	1.654536
0.357422	1.654405
0.357910	1.654419
0.358398	1.654071
0.358887	1.654377
0.359375	1.654389
0.359863	1.654343
0.360352	1.654580
0.360840	1.654388
0.361328	1.654406
0.361816	1.654333
0.362305	1.653912
0.362793	1.654392
0.363281	1.654391
0.363770	1.654341
0.364258	1.654203
0.364746	1.654466
0.365234	1.654257
0.365723	1.654338
0.366211	1.654406
0.366699	1.654432
0.367187	1.654541
0.367676	1.654645
0.368164	1.654483
0.368652	1.654230
0.369141	1.654491
0.369629	1.654488
0.370117	1.654414
0.370605	1.654423
0.371094	1.654275
0.371582	1.654144
0.372070	1.654225
0.372559	1.654286
0.373047	1.654449
0.373535	1.654301
0.374023	1.654204
0.374512	1.654348
0.375000	1.654359
0.375488	1.654214
0.375977	1.654177
0.376465	1.654273
0.376953	1.654334
0.377441	1.653930
0.377930	1.654026
0.378418	1.654034
0.378906	1.654048
0.379395	1.654371
0.379883	1.654361
0.380371	1.654438
0.380859	1.654137
0.381348	1.654333
0.381836	1.654110
0.382324	1.653919
0.382812	1.654541
0.383301	1.654494
0.383789	1.654100
0.384277	1.654074
0.384766	1.654189
0.385254	1.654209
0.385742	1.654188
0.386230	1.654120
0.386719	1.653929
0.387207	1.654378
0.387695	1.654405
0.388184	1.654137
0.388672	1.654135
0.389160	1.654273
0.389648	1.654225
0.390137	1.654384
0.390625	1.654309
0.391113	1.654114
0.391602	1.654292
0.392090	1.654209
0.392578	1.654363
0.393066	1.654708
0.393555	1.654497
0.394043	1.654309
0.394531	1.654228
0.395020	1.654197
0.395508	1.654438
0.395996	1.654287
0.396484	1.654367
0.396973	1.654239
0.397461	1.654896
0.397949	1.654611
0.398437	1.654356
0.398926	1.654392
0.399414	1.654683
0.399902	1.654518
0.400391	1.654310
0.400879	1.654108
0.401367	1.654196
0.401855	1.654549
0.402344	1.654646
0.402832	1.654391
0.403320	1.654442
0.403809	1.654384
0.404297	1.654574
0.404785	1.654184
0.405273	1.654212
0.405762	1.654596
0.406250	1.654696
0.406738	1.654532
0.407227	1.654486
0.407715	1.654114
0.408203	1.654254
0.408691	1.654535
0.409180	1.654458
0.409668	1.654359
0.410156	1.654205
0.410645	1.654283
0.411133	1.654195
0.411621	1.654103
0.412109	1.654429
0.412598	1.654192
0.413086	1.654383
0.413574	1.654265
0.414062	1.654421
0.414551	1.654134
0.415039	1.654131
0.415527	1.654300
0.416016	1.654413
0.416504	1.654422
0.416992	1.654339
0.417480	1.654215
0.417969	1.654303
0.418457	1.654496
0.418945	1.654535
0.419434	1.653988
0.419922	1.654201
0.420410	1.654693
0.420898	1.654259
0.421387	1.654461
0.421875	1.654221
0.422363	1.654324
0.422852	1.654165
0.423340	1.654004
0.423828	1.654151
0.424316	1.654218
0.424805	1.654292
0.425293	1.654241
0.425781	1.654240
0.426270	1.654215
0.426758	1.654216
0.427246	1.654146
0.427734	1.654143
0.428223	1.654354
0.428711	1.654827
0.429199	1.654372
0.429687	1.654136
0.430176	1.654405
0.430664	1.654408
0.431152	1.654472
0.431641	1.654425
0.432129	1.654036
0.432617	1.654385
0.433105	1.654767
0.433594	1.654453
0.434082	1.654362
0.434570	1.654312
0.435059	1.654524
0.435547	1.654448
0.436035	1.654167
0.436523	1.654206
0.437012	1.654340
0.437500	1.654852
0.437988	1.654815
0.438477	1.654627
0.438965	1.654456
0.439453	1.654285
0.439941	1.654621
0.440430	1.654239
0.440918	1.654466
0.441406	1.654525
0.441895	1.654469
0.442383	1.654532
0.442871	1.654500
0.443359	1.654417
0.443848	1.654639
0.444336	1.654552
0.444824	1.654488
0.445312	1.654488
0.445801	1.654670
0.446289	1.654458
0.446777	1.654741
0.447266	1.654790
0.447754	1.654862
0.448242	1.654738
0.448730	1.654533
0.449219	1.654694
0.449707	1.654775
0.450195	1.654949
0.450684	1.654914
0.451172	1.654760
0.451660	1.654782
0.452148	1.654755
0.452637	1.654678
0.453125	1.654507
0.453613	1.654584
0.454102	1.654881
0.454590	1.654825
0.455078	1.654552
0.455566	1.654743
0.456055	1.654798
0.456543	1.654812
0.457031	1.654882
0.457520	1.654812
0.458008	1.654643
0.458496	1.654645
0.458984	1.654917
0.459473	1.654959
0.459961	1.654901
0.460449	1.654806
0.460937	1.654754
0.461426	1.655009
0.461914	1.654826
0.462402	1.654959
0.462891	1.654723
0.463379	1.654610
0.463867	1.654505
0.464355	1.654500
0.464844	1.654556
0.465332	1.654347
0.465820	1.654888
0.466309	1.654713
0.466797	1.654697
0.467285	1.654647
0.467773	1.654443
0.468262	1.654471
0.468750	1.654532
0.469238	1.654801
0.469727	1.655006
0.470215	1.654328
0.470703	1.654549
0.471191	1.654546
0.471680	1.654606
0.472168	1.654761
0.472656	1.654640
0.473145	1.654525
0.473633	1.654678
0.474121	1.654420
0.474609	1.654566
0.475098	1.654545
0.475586	1.654708
0.476074	1.654865
0.476562	1.654929
0.477051	1.654611
0.477539	1.654572
0.478027	1.654657
0.478516	1.654505
0.479004	1.654555
0.479492	1.654795
0.479980	1.654640
0.480469	1.654320
0.480957	1.654568
0.481445	1.654674
0.481934	1.654549
0.482422	1.654508
0.482910	1.654614
0.483398	1.654445
0.483887	1.654644
0.484375	1.654569
0.484863	1.654676
0.485352	1.654699
0.485840	1.654873
0.486328	1.654686
0.486816	1.654602
0.487305	1.654598
0.487793	1.654610
0.488281	1.654734
0.488770	1.654622
0.489258	1.654542
0.489746	1.654606
0.490234	1.654708
0.490723	1.654569
0.491211	1.654680
0.491699	1.654604
0.492187	1.654154
0.492676	1.654166
0.493164	1.654784
0.493652	1.654396
0.494141	1.654105
0.494629	1.654142
0.495117	1.654341
0.495605	1.654508
0.496094	1.654604
0.496582	1.654350
0.497070	1.654303
0.497559	1.654247
0.498047	1.654309
0.498535	1.654412
0.499023	1.654403
0.499512	1.654165
0.500000	1.654572
0.500488	1.654843
0.500977	1.654383
0.501465	1.654526
0.501953	1.654600
0.502441	1.654649
0.502930	1.654672
0.503418	1.654391
0.503906	1.654355
0.504395	1.654375
0.504883	1.654749
0.505371	1.654748
0.505859	1.654389
0.506348	1.654264
0.506836	1.654448
0.507324	1.654472
0.507812	1.654267
0.508301	1.654610
0.508789	1.654541
0.509277	1.654536
0.509766	1.654506
0.510254	1.654192
0.510742	1.654145
0.511230	1.654475
0.511719	1.654426
0.512207	1.654424
0.512695	1.654442
0.513184	1.654663
0.513672	1.654450
0.514160	1.654609
0.514648	1.654666
0.515137	1.654510
0.515625	1.654685
0.516113	1.654917
0.516602	1.654721
0.517090	1.654708
0.517578	1.654729
0.518066	1.654488
0.518555	1.654793
0.519043	1.654824
0.519531	1.654519
0.520020	1.654525
0.520508	1.654472
0.520996	1.654254
0.521484	1.654554
0.521973	1.654569
0.522461	1.654416
0.522949	1.654461
0.523437	1.654617
0.523926	1.654639
0.524414	1.654599
0.524902	1.654496
0.525391	1.654598
0.525879	1.654634
0.526367	1.654712
0.526855	1.654811
0.527344	1.654572
0.527832	1.654686
0.528320	1.654795
0.528809	1.654991
0.529297	1.654858
0.529785	1.654652
0.530273	1.654765
0.530762	1.654542
0.531250	1.654759
0.531738	1.654760
0.532227	1.654474
0.532715	1.654419
0.533203	1.654701
0.533691	1.654724
0.534180	1.654532
0.534668	1.654575
0.535156	1.654769
0.535645	1.654487
0.536133	1.654656
0.536621	1.654574
0.537109	1.654500
0.537598	1.654361
0.538086	1.654432
0.538574	1.654971
0.539062	1.654809
0.539551	1.654250
0.540039	1.654410
0.540527	1.654546
0.541016	1.654641
0.541504	1.654740
0.541992	1.654533
0.542480	1.654300
0.542969	1.654729
0.543457	1.654515
0.543945	1.654512
0.544434	1.654438
0.544922	1.654387
0.545410	1.654335
0.545898	1.654567
0.546387	1.654313
0.546875	1.654339
0.547363	1.654311
0.547852	1.654366
0.548340	1.654303
0.548828	1.654330
0.549316	1.654144
0.549805	1.654040
0.550293	1.654424
0.550781	1.654345
0.551270	1.654285
0.551758	1.654331
0.552246	1.654197
0.552734	1.654301
0.553223	1.654336
0.553711	1.654334
0.554199	1.654369
0.554687	1.654418
0.555176	1.654305
0.555664	1.654250
0.556152	1.654009
0.556641	1.654104
0.557129	1.654254
0.557617	1.654248
0.558105	1.654262
0.558594	1.654250
0.559082	1.654054
0.559570	1.654063
0.560059	1.654199
0.560547	1.654170
0.561035	1.653994
0.561523	1.654182
0.562012	1.653982
0.562500	1.654050
0.562988	1.653921
0.563477	1.653948
0.563965	1.654022
0.564453	1.654237
0.564941	1.654287
0.565430	1.654357
0.565918	1.653830
0.566406	1.653999
0.566895	1.654406
0.567383	1.654392
0.567871	1.654031
0.568359	1.654103
0.568848	1.654433
0.569336	1.654201
0.569824	1.654195
0.570312	1.654174
0.570801	1.653943
0.571289	1.654174
0.571777	1.654190
0.572266	1.654164
0.572754	1.654123
0.573242	1.653847
0.573730	1.654084
0.574219	1.654009
0.574707	1.654039
0.575195	1.653854
0.575684	1.654098
0.576172	1.654192
0.576660	1.654096
0.577148	1.654261
0.577637	1.654201
0.578125	1.654063
0.578613	1.654085
0.579102	1.654146
0.579590	1.654284
0.580078	1.654226
0.580566	1.653952
0.581055	1.654062
0.581543	1.654176
0.582031	1.654413
0.582520	1.654388
0.583008	1.654142
0.583496	1.654068
0.583984	1.654251
0.584473	1.654156
0.584961	1.654273
0.585449	1.654247
0.585937	1.654245
0.586426	1.654208
0.586914	1.653941
0.587402	1.654194
0.587891	1.654117
0.588379	1.654159
0.588867	1.654043
0.589355	1.654256
0.589844	1.654233
0.590332	1.654007
0.590820	1.654176
0.591309	1.654050
0.591797	1.654012
0.592285	1.654269
0.592773	1.654247
0.593262	1.653921
0.593750	1.654151
0.594238	1.654361
0.594727	1.654250
0.595215	1.654289
0.595703	1.654216
0.596191	1.654135
0.596680	1.654286
0.597168	1.654084
0.597656	1.654464
0.598145	1.654693
0.598633	1.654672
0.599121	1.654648
0.599609	1.654070
0.600098	1.654158
0.600586	1.654615
0.601074	1.654322
0.601562	1.654244
0.602051	1.654345
0.602539	1.654495
0.603027	1.654396
0.603516	1.654505
0.604004	1.654408
0.604492	1.654428
0.604980	1.654471
0.605469	1.654708
0.605957	1.654361
0.606445	1.654509
0.606934	1.654420
0.607422	1.654655
0.607910	1.654814
0.608398	1.654869
0.608887	1.654875
0.609375	1.654719
0.609863	1.654746
0.610352	1.655147
0.610840	1.654802
0.611328	1.654522
0.611816	1.654585
0.612305	1.654847
0.612793	1.654730
0.613281	1.654796
0.613770	1.654735
0.614258	1.654662
0.614746	1.654762
0.615234	1.654665
0.615723	1.654597
0.616211	1.654605
0.616699	1.654667
0.617187	1.654712
0.617676	1.655033
0.618164	1.654786
0.618652	1.654941
0.619141	1.654904
0.619629	1.654984
0.620117	1.655079
0.620605	1.654665
0.621094	1.654923
0.621582	1.654981
0.622070	1.655069
0.622559	1.654979
0.623047	1.655072
0.623535	1.655051
0.624023	1.655051
0.624512	1.655152
0.625000	1.654823
0.625488	1.654795
0.625977	1.655028
0.626465	1.654981
0.626953	1.655160
0.627441	1.655213
0.627930	1.655220
0.628418	1.655040
0.628906	1.654801
0.629395	1.655039
0.629883	1.654977
0.630371	1.654835
0.630859	1.654679
0.631348	1.654947
0.631836	1.654957
0.632324	1.654859
0.632812	1.654910
0.633301	1.654898
0.633789	1.654824
0.634277	1.654947
0.634766	1.654884
0.635254	1.654776
0.635742	1.654747
0.636230	1.654835
0.636719	1.655014
0.637207	1.655009
0.637695	1.654950
0.638184	1.654777
0.638672	1.654831
0.639160	1.655021
0.639648	1.654916
0.640137	1.654869
0.640625	1.654422
0.641113	1.654749
0.641602	1.654878
0.642090	1.654715
0.642578	1.654743
0.643066	1.654645
0.643555	1.654637
0.644043	1.654575
0.644531	1.654502
0.645020	1.654455
0.645508	1.654496
0.645996	1.654603
0.646484	1.654802
0.646973	1.654598
0.647461	1.654347
0.647949	1.654474
0.648437	1.654591
0.648926	1.654713
0.649414	1.654716
0.649902	1.654739
0.650391	1.654671
0.650879	1.654695
0.651367	1.654749
0.651855	1.654676
0.652344	1.654773
0.652832	1.654877
0.653320	1.654744
0.653809	1.654586
0.654297	1.654455
0.654785	1.654534
0.655273	1.654526
0.655762	1.654481
0.656250	1.654299
0.656738	1.654412
0.657227	1.654355
0.657715	1.654427
0.658203	1.654478
0.658691	1.654392
0.659180	1.654391
0.659668	1.654401
0.660156	1.654481
0.660645	1.654242
0.661133	1.654411
0.661621	1.654360
0.662109	1.654377
0.662598	1.654419
0.663086	1.654580
0.663574	1.654524
0.664062	1.654333
0.664551	1.654580
0.665039	1.654485
0.665527	1.654616
0.666016	1.654214
0.666504	1.654305
0.666992	1.654524
0.667480	1.654464
0.667969	1.654424
0.668457	1.654564
0.668945	1.654588
0.669434	1.654325
0.669922	1.654303
0.670410	1.654236
0.670898	1.654118
0.671387	1.654359
0.671875	1.654403
0.672363	1.654502
0.672852	1.654319
0.673340	1.654169
0.673828	1.654350
0.674316	1.654350
0.674805	1.654452
0.675293	1.654480
0.675781	1.654385
0.676270	1.654290
0.676758	1.654511
0.677246	1.654756
0.677734	1.654813
0.678223	1.654575
0.678711	1.654381
0.679199	1.654278
0.679687	1.654677
0.680176	1.654611
0.680664	1.654477
0.681152	1.654448
0.681641	1.654668
0.682129	1.654595
0.682617	1.654060
0.683105	1.654192
0.683594	1.654301
0.684082	1.654380
0.684570	1.654439
0.685059	1.654546
0.685547	1.654407
0.686035	1.654361
0.686523	1.654472
0.687012	1.654553
0.687500	1.654575
0.687988	1.654627
0.688477	1.654438
0.688965	1.654508
0.689453	1.654656
0.689941	1.654731
0.690430	1.654655
0.690918	1.654599
0.691406	1.654798
0.691895	1.654723
0.692383	1.654738
0.692871	1.654630
0.693359	1.654718
0.693848	1.654802
0.694336	1.654697
0.694824	1.654798
0.695312	1.654749
0.695801	1.654618
0.696289	1.654959
0.696777	1.654717
0.697266	1.654816
0.697754	1.654478
0.698242	1.654407
0.698730	1.654671
0.699219	1.654712
0.699707	1.654621
0.700195	1.654553
0.700684	1.654843
0.701172	1.654604
0.701660	1.654694
0.702148	1.654543
0.702637	1.654574
0.703125	1.654721
0.703613	1.655188
0.704102	1.654854
0.704590	1.654842
0.705078	1.654893
0.705566	1.654947
0.706055	1.655066
0.706543	1.655161
0.707031	1.654952
0.707520	1.655032
0.708008	1.654998
0.708496	1.655058
0.708984	1.655110
0.709473	1.655051
0.709961	1.655023
0.710449	1.655023
0.710937	1.654751
0.711426	1.654986
0.711914	1.654971
0.712402	1.654687
0.712891	1.654818
0.713379	1.654813
0.713867	1.654685
0.714355	1.654773
0.714844	1.654788
0.715332	1.654643
0.715820	1.654970
0.716309	1.655051
0.716797	1.654796
0.717285	1.654879
0.717773	1.654867
0.718262	1.654940
0.718750	1.655114
0.719238	1.655101
0.719727	1.654651
0.720215	1.654947
0.720703	1.655208
0.721191	1.654974
0.721680	1.655002
0.722168	1.655058
0.722656	1.655114
0.723145	1.654900
0.723633	1.655043
0.724121	1.654961
0.724609	1.655090
0.725098	1.655109
0.725586	1.655028
0.726074	1.655048
0.726562	1.654770
0.727051	1.654941
0.727539	1.655133
0.728027	1.654964
0.728516	1.654903
0.729004	1.654687
0.729492	1.654822
0.729980	1.654867
0.730469	1.654985
0.730957	1.654754
0.731445	1.654956
0.731934	1.654956
0.732422	1.654845
0.732910	1.655029
0.733398	1.654528
0.733887	1.654661
0.734375	1.654815
0.734863	1.654763
0.735352	1.654375
0.735840	1.654524
0.736328	1.654777
0.736816	1.654688
0.737305	1.654754
0.737793	1.654793
0.738281	1.654500
0.738770	1.654449
0.739258	1.654452
0.739746	1.654638
0.740234	1.654679
0.740723	1.654350
0.741211	1.654394
0.741699	1.654580
0.742187	1.654345
0.742676	1.654522
0.743164	1.654287
0.743652	1.654323
0.744141	1.654405
0.744629	1.654463
0.745117	1.654357
0.745605	1.654229
0.746094	1.654521
0.746582	1.654538
0.747070	1.654373
0.747559	1.654486
0.748047	1.654149
0.748535	1.654198
0.749023	1.654339
0.749512	1.654589
0.750000	1.654493
0.750488	1.654272
0.750977	1.654130
0.751465	1.654043
0.751953	1.653963
0.752441	1.653973
0.752930	1.653872
0.753418	1.654178
0.753906	1.654059
0.754395	1.654190
0.754883	1.654184
0.755371	1.654084
0.755859	1.654031
0.756348	1.653982
0.756836	1.654348
0.757324	1.654460
0.757812	1.654139
0.758301	1.654177
0.758789	1.654253
0.759277	1.654259
0.759766	1.654264
0.760254	1.654366
0.760742	1.653952
0.761230	1.653971
0.761719	1.654351
0.762207	1.654048
0.762695	1.654036
0.763184	1.654070
0.763672	1.654135
0.764160	1.654126
0.764648	1.653920
0.765137	1.653754
0.765625	1.654036
0.766113	1.654049
0.766602	1.653980
0.767090	1.653994
0.767578	1.654065
0.768066	1.654137
0.768555	1.654193
0.769043	1.654123
0.769531	1.654049
0.770020	1.654181
0.770508	1.654251
0.770996	1.654265
0.771484	1.653986
0.771973	1.654123
0.772461	1.654258
0.772949	1.654461
0.773437	1.654315
0.773926	1.654166
0.774414	1.654012
0.774902	1.654139
0.775391	1.654378
0.775879	1.654207
0.776367	1.653816
0.776855	1.654074
0.777344	1.654282
0.777832	1.654142
0.778320	1.654100
0.778809	1.654095
0.779297	1.654042
0.779785	1.654174
0.780273	1.654216
0.780762	1.654131
0.781250	1.653929
0.781738	1.653744
0.782227	1.654173
0.782715	1.654006
0.783203	1.654166
0.783691	1.653801
0.784180	1.654185
0.784668	1.654431
0.785156	1.654217
0.785645	1.654284
0.786133	1.654240
0.786621	1.654175
0.787109	1.654114
0.787598	1.654330
0.788086	1.654585
0.788574	1.654441
0.789062	1.654167
0.789551	1.654070
0.790039	1.653996
0.790527	1.654339
0.791016	1.654168
0.791504	1.654137
0.791992	1.653880
0.792480	1.654250
0.792969	1.654192
0.793457	1.653782
0.793945	1.654120
0.794434	1.654057
0.794922	1.654090
0.795410	1.654126
0.795898	1.653843
0.796387	1.653910
0.796875	1.654172
0.797363	1.654488
0.797852	1.654283
0.798340	1.654289
0.798828	1.654179
0.799316	1.654439
0.799805	1.654249
0.800293	1.654111
0.800781	1.654449
0.801270	1.654353
0.801758	1.654211
0.802246	1.654182
0.802734	1.654046
0.803223	1.654272
0.803711	1.654317
0.804199	1.654287
0.804687	1.654206
0.805176	1.654036
0.805664	1.654015
0.806152	1.654212
0.806641	1.654265
0.807129	1.654073
0.807617	1.654282
0.808105	1.654261
0.808594	1.654198
0.809082	1.654199
0.809570	1.654368
0.810059	1.654336
0.810547	1.654087
0.811035	1.653716
0.811523	1.654192
0.812012	1.654294
0.812500	1.654224
0.812988	1.654187
0.813477	1.654403
0.813965	1.654261
0.814453	1.654233
0.814941	1.654135
0.815430	1.653985
0.815918	1.654301
0.816406	1.654245
0.816895	1.654050
0.817383	1.653800
0.817871	1.654112
0.818359	1.654140
0.818848	1.654169
0.819336	1.653907
0.819824	1.653913
0.820312	1.653855
0.820801	1.653868
0.821289	1.653903
0.821777	1.654362
0.822266	1.654036
0.822754	1.653748
0.823242	1.654014
0.823730	1.653968
0.824219	1.653980
0.824707	1.653967
0.825195	1.654065
0.825684	1.653887
0.826172	1.653924
0.826660	1.653863
0.827148	1.653852
0.827637	1.653915
0.828125	1.653868
0.828613	1.653995
0.829102	1.654109
0.829590	1.653847
0.830078	1.654052
0.830566	1.653954
0.831055	1.653822
0.831543	1.653759
0.832031	1.653727
0.832520	1.653688
0.833008	1.653724
0.833496	1.653922
0.833984	1.653794
0.834473	1.653774
0.834961	1.653858
0.835449	1.653766
0.835937	1.653762
0.836426	1.653690
0.836914	1.653939
0.837402	1.654232
0.837891	1.654375
0.838379	1.654037
0.838867	1.653898
0.839355	1.653866
0.839844	1.654139
0.840332	1.654276
0.840820	1.654052
0.841309	1.653905
0.841797	1.654091
0.842285	1.653998
0.842773	1.654084
0.843262	1.654045
0.843750	1.653913
0.844238	1.654174
0.844727	1.654156
0.845215	1.654114
0.845703	1.654071
0.846191	1.653989
0.846680	1.654130
0.847168	1.654253
0.847656	1.654060
0.848145	1.653939
0.848633	1.653887
0.849121	1.654298
0.849609	1.654245
0.850098	1.654218
0.850586	1.654165
0.851074	1.653889
0.851562	1.653984
0.852051	1.653915
0.852539	1.654424
0.853027	1.654567
0.853516	1.654228
0.854004	1.654293
0.854492	1.654101
0.854980	1.654196
0.855469	1.654408
0.855957	1.654278
0.856445	1.654275
0.856934	1.654183
0.857422	1.654517
0.857910	1.654211
0.858398	1.654262
0.858887	1.654204
0.859375	1.654310
0.859863	1.654015
0.860352	1.654099
0.860840	1.654101
0.861328	1.654192
0.861816	1.654018
0.862305	1.654085
0.862793	1.654006
0.863281	1.654248
0.863770	1.654342
0.864258	1.654262
0.864746	1.654001
0.865234	1.654487
0.865723	1.654372
0.866211	1.654207
0.866699	1.654315
0.867187	1.654481
0.867676	1.654593
0.868164	1.654456
0.868652	1.654330
0.869141	1.654244
0.869629	1.654430
0.870117	1.654323
0.870605	1.654397
0.871094	1.654338
0.871582	1.654378
0.872070	1.654397
0.872559	1.654247
0.873047	1.654312
0.873535	1.654444
0.874023	1.654590
0.874512	1.654302
0.875000	1.654298
0.875488	1.654251
0.875977	1.654294
0.876465	1.654380
0.876953	1.654416
0.877441	1.654408
0.877930	1.654120
0.878418	1.654091
0.878906	1.654452
0.879395	1.654425
0.879883	1.654070
0.880371	1.653937
0.880859	1.654478
0.881348	1.654303
0.881836	1.654113
0.882324	1.654110
0.882812	1.654066
0.883301	1.654300
0.883789	1.654241
0.884277	1.654117
0.884766	1.654157
0.885254	1.654073
0.885742	1.654132
0.886230	1.654143
0.886719	1.654040
0.887207	1.653991
0.887695	1.654032
0.888184	1.654270
0.888672	1.654138
0.889160	1.654259
0.889648	1.654126
0.890137	1.654142
0.890625	1.654117
0.891113	1.653742
0.891602	1.654176
0.892090	1.654298
0.892578	1.654179
0.893066	1.654194
0.893555	1.654162
0.894043	1.654007
0.894531	1.654212
0.895020	1.654231
0.895508	1.654171
0.895996	1.654002
0.896484	1.654093
0.896973	1.654130
0.897461	1.654001
0.897949	1.654092
0.898437	1.653939
0.898926	1.653970
0.899414	1.653841
0.899902	1.653898
0.900391	1.654004
0.900879	1.653683
0.901367	1.653608
0.901855	1.653790
0.902344	1.654026
0.902832	1.653754
0.903320	1.654111
0.903809	1.653699
0.904297	1.653838
0.904785	1.653918
0.905273	1.653808
0.905762	1.654192
0.906250	1.653461
0.906738	1.653691
0.907227	1.653880
0.907715	1.654138
0.908203	1.654085
0.908691	1.653780
0.909180	1.653917
0.909668	1.653787
0.910156	1.653943
0.910645	1.653774
0.911133	1.653646
0.911621	1.653728
0.912109	1.653918
0.912598	1.653895
0.913086	1.653791
0.913574	1.653636
0.914062	1.653784
0.914551	1.653876
0.915039	1.653716
0.915527	1.653735
0.916016	1.653755
0.916504	1.653894
0.916992	1.653857
0.917480	1.653782
0.917969	1.653697
0.918457	1.653485
0.918945	1.653980
0.919434	1.653913
0.919922	1.654065
0.920410	1.653776
0.920898	1.653862
0.921387	1.653934
0.921875	1.653785
0.922363	1.654001
0.922852	1.654295
0.923340	1.653827
0.923828	1.653821
0.924316	1.654157
0.924805	1.654067
0.925293	1.654068
0.925781	1.653888
0.926270	1.653828
0.926758	1.653963
0.927246	1.653966
0.927734	1.653893
0.928223	1.654007
0.928711	1.654071
0.929199	1.653931
0.929687	1.654037
0.930176	1.653894
0.930664	1.653954
0.931152	1.653976
0.931641	1.654084
0.932129	1.654031
0.932617	1.653960
0.933105	1.653868
0.933594	1.654049
0.934082	1.654106
0.934570	1.654402
0.935059	1.654211
0.935547	1.654181
0.936035	1.654343
0.936523	1.654318
0.937012	1.654262
0.937500	1.654344
0.937988	1.654574
0.938477	1.654572
0.938965	1.654437
0.939453	1.654310
0.939941	1.654296
0.940430	1.654383
0.940918	1.654544
0.941406	1.654441
0.941895	1.654298
0.942383	1.654415
0.942871	1.654492
0.943359	1.654477
0.943848	1.654710
0.944336	1.654569
0.944824	1.654427
0.945312	1.654413
0.945801	1.654583
0.946289	1.654578
0.946777	1.654443
0.947266	1.654680
0.947754	1.654754
0.948242	1.654712
0.948730	1.654921
0.949219	1.654872
0.949707	1.654697
0.950195	1.654828
0.950684	1.654600
0.951172	1.654625
0.951660	1.654516
0.952148	1.654427
0.952637	1.654403
0.953125	1.654445
0.953613	1.654648
0.954102	1.654447
0.954590	1.654353
0.955078	1.654403
0.955566	1.654503
0.956055	1.654352
0.956543	1.654261
0.957031	1.654341
0.957520	1.654722
0.958008	1.654417
0.958496	1.654334
0.958984	1.654369
0.959473	1.654360
0.959961	1.654611
0.960449	1.654559
0.960937	1.654528
0.961426	1.654394
0.961914	1.654455
0.962402	1.654673
0.962891	1.654640
0.963379	1.654520
0.963867	1.654474
0.964355	1.654834
0.964844	1.654688
0.965332	1.654699
0.965820	1.654568
0.966309	1.654477
0.966797	1.654709
0.967285	1.654878
0.967773	1.654743
0.968262	1.654193
0.968750	1.654491
0.969238	1.654596
0.969727	1.654619
0.970215	1.654598
0.970703	1.654521
0.971191	1.654384
0.971680	1.654282
0.972168	1.654552
0.972656	1.654574
0.973145	1.654464
0.973633	1.654474
0.974121	1.654456
0.974609	1.654291
0.975098	1.654478
0.975586	1.654899
0.976074	1.654507
0.976562	1.654350
0.977051	1.654594
0.977539	1.654774
0.978027	1.654599
0.978516	1.654525
0.979004	1.654433
0.979492	1.654420
0.979980	1.654646
0.980469	1.654460
0.980957	1.654657
0.981445	1.654616
0.981934	1.654438
0.982422	1.654499
0.982910	1.654301
0.983398	1.654283
0.983887	1.654435
0.984375	1.654502
0.984863	1.654422
0.985352	1.654357
0.985840	1.654222
0.986328	1.654267
0.986816	1.654280
0.987305	1.654560
0.987793	1.654463
0.988281	1.654190
0.988770	1.654385
0.989258	1.654195
0.989746	1.654305
0.990234	1.654258
0.990723	1.654505
0.991211	1.654662
0.991699	1.654509
0.992187	1.654651
0.992676	1.654020
0.993164	1.654125
0.993652	1.654553
0.994141	1.654370
0.994629	1.654146
0.995117	1.654126
0.995605	1.654344
0.996094	1.654115
0.996582	1.654272
0.997070	1.654170
0.997559	1.654170
0.998047	1.654203
0.998535	1.654311
0.999023	1.654183
0.999512	1.654037
1.000000	1.654030
1.000488	1.654093
1.000977	1.654218
1.001465	1.654406
1.001953	1.654347
1.002441	1.654152
1.002930	1.653935
1.003418	1.654372
1.003906	1.654450
1.004395	1.654067
1.004883	1.653900
1.005371	1.654441
1.005859	1.654301
1.006348	1.654044
1.006836	1.654029
1.007324	1.654234
1.007812	1.654334
1.008301	1.654207
1.008789	1.653975
1.009277	1.653873
1.009766	1.654090
1.010254	1.654190
1.010742	1.654258
1.011230	1.653942
1.011719	1.653988
1.012207	1.654106
1.012695	1.654181
1.013184	1.654165
1.013672	1.654452
1.014160	1.654355
1.014648	1.653974
1.015137	1.654379
1.015625	1.654400
1.016113	1.654220
1.016602	1.654293
1.017090	1.654194
1.017578	1.654331
1.018066	1.654385
1.018555	1.654162
1.019043	1.654352
1.019531	1.654340
1.020020	1.654479
1.020508	1.654326
1.020996	1.653888
1.021484	1.654043
1.021973	1.654488
1.022461	1.654468
1.022949	1.654092
1.023437	1.654214
1.023926	1.654344
1.024414	1.654200
1.024902	1.654388
1.025391	1.654594
1.025879	1.654283
1.026367	1.654485
1.026855	1.654414
1.027344	1.654463
1.027832	1.654508
1.028320	1.654208
1.028809	1.654488
1.029297	1.654674
1.029785	1.654557
1.030273	1.654686
1.030762	1.654376
1.031250	1.654248
1.031738	1.654671
1.032227	1.654724
1.032715	1.654349
1.033203	1.654237
1.033691	1.654584
1.034180	1.654566
1.034668	1.654480
1.035156	1.654308
1.035645	1.654353
1.036133	1.654328
1.036621	1.654553
1.037109	1.654336
1.037598	1.654569
1.038086	1.654314
1.038574	1.654336
1.039062	1.654544
1.039551	1.654544
1.040039	1.654540
1.040527	1.654561
1.041016	1.654292
1.041504	1.654661
1.041992	1.654691
1.042480	1.654549
1.042969	1.654528
1.043457	1.654572
1.043945	1.654643
1.044434	1.654656
1.044922	1.654866
1.045410	1.654563
1.045898	1.654452
1.046387	1.654768
1.046875	1.654643
1.047363	1.654485
1.047852	1.654531
1.048340	1.654459
1.048828	1.654571
1.049316	1.654712
1.049805	1.654454
1.050293	1.654422
1.050781	1.654348
1.051270	1.654472
1.051758	1.654572
1.052246	1.654413
1.052734	1.654411
1.053223	1.654509
1.053711	1.654503
1.054199	1.654715
1.054687	1.654454
1.055176	1.654580
1.055664	1.654312
1.056152	1.654619
1.056641	1.654774
1.057129	1.654564
1.057617	1.654688
1.058105	1.654795
1.058594	1.654832
1.059082	1.654642
1.059570	1.654334
1.060059	1.654625
1.060547	1.654694
1.061035	1.654838
1.061523	1.654510
1.062012	1.654531
1.062500	1.654450
1.062988	1.654594
1.063477	1.654418
1.063965	1.654031
1.064453	1.654519
1.064941	1.654743
1.065430	1.654582
1.065918	1.654593
1.066406	1.654411
1.066895	1.654603
1.067383	1.654719
1.067871	1.654777
1.068359	1.654294
1.068848	1.654459
1.069336	1.654694
1.069824	1.654577
1.070312	1.654770
1.070801	1.654494
1.071289	1.654526
1.071777	1.654530
1.072266	1.654588
1.072754	1.654501
1.073242	1.654578
1.073730	1.654309
1.074219	1.654474
1.074707	1.654529
1.075195	1.654381
1.075684	1.654520
1.076172	1.654463
1.076660	1.654538
1.077148	1.654650
1.077637	1.654636
1.078125	1.654537
1.078613	1.654433
1.079102	1.654335
1.079590	1.654508
1.080078	1.654770
1.080566	1.654628
1.081055	1.654331
1.081543	1.654311
1.082031	1.654316
1.082520	1.654453
1.083008	1.654374
1.083496	1.654289
1.083984	1.654444
1.084473	1.654444
1.084961	1.654508
1.085449	1.654434
1.085937	1.654372
1.086426	1.654317
1.086914	1.654474
1.087402	1.654611
1.087891	1.654513
1.088379	1.654283
1.088867	1.654474
1.089355	1.654669
1.089844	1.654577
1.090332	1.654532
1.090820	1.654279
1.091309	1.654269
1.091797	1.654455
1.092285	1.654425
1.092773	1.654324
1.093262	1.654297
1.093750	1.654389
1.094238	1.654353
1.094727	1.654099
1.095215	1.654106
1.095703	1.654178
1.096191	1.654353
1.096680	1.654500
1.097168	1.654425
1.097656	1.654616
1.098145	1.654320
1.098633	1.654784
1.099121	1.654324
1.099609	1.654439
1.100098	1.654735
1.100586	1.654605
1.101074	1.654278
1.101562	1.654541
1.102051	1.654463
1.102539	1.654585
1.103027	1.654589
1.103516	1.654507
1.104004	1.654414
1.104492	1.654369
1.104980	1.654376
1.105469	1.654363
1.105957	1.654498
1.106445	1.654491
1.106934	1.654348
1.107422	1.654599
1.107910	1.654316
1.108398	1.654524
1.108887	1.654580
1.109375	1.654326
1.109863	1.654420
1.110352	1.654410
1.110840	1.654416
1.111328	1.654304
1.111816	1.654672
1.112305	1.654662
1.112793	1.654666
1.113281	1.654691
1.113770	1.654687
1.114258	1.654679
1.114746	1.654393
1.115234	1.654566
1.115723	1.655101
1.116211	1.654756
1.116699	1.654373
1.117187	1.654633
1.117676	1.654754
1.118164	1.654795
1.118652	1.654676
1.119141	1.654610
1.119629	1.654648
1.120117	1.654549
1.120605	1.654791
1.121094	1.654911
1.121582	1.654797
1.122070	1.654615
1.122559	1.654784
1.123047	1.654890
1.123535	1.654856
1.124023	1.654748
1.124512	1.654938
1.125000	1.654737
1.125488	1.655231
1.125977	1.654911
1.126465	1.654813
1.126953	1.654714
1.127441	1.654890
1.127930	1.654965
1.128418	1.654732
1.128906	1.654706
1.129395	1.654478
1.129883	1.654895
1.130371	1.654902
1.130859	1.654776
1.131348	1.654542
1.131836	1.654680
1.132324	1.654694
1.132812	1.654560
1.133301	1.654699
1.133789	1.654638
1.134277	1.654799
1.134766	1.654723
1.135254	1.654776
1.135742	1.654940
1.136230	1.654651
1.136719	1.654366
1.137207	1.654674
1.137695	1.654740
1.138184	1.654799
1.138672	1.654920
1.139160	1.654891
1.139648	1.654845
1.140137	1.654776
1.140625	1.654821
1.141113	1.654386
1.141602	1.654631
1.142090	1.655076
1.142578	1.654823
1.143066	1.654532
1.143555	1.654496
1.144043	1.654594
1.144531	1.654713
1.145020	1.654605
1.145508	1.654532
1.145996	1.654425
1.146484	1.654358
1.146973	1.654556
1.147461	1.654689
1.147949	1.654600
1.148437	1.654280
1.148926	1.654526
1.149414	1.654904
1.149902	1.654610
1.150391	1.654485
1.150879	1.654505
1.151367	1.654681
1.151855	1.654827
1.152344	1.654616
1.152832	1.654402
1.153320	1.654429
1.153809	1.654408
1.154297	1.654732
1.154785	1.654419
1.155273	1.654375
1.155762	1.654567
1.156250	1.654538
1.156738	1.654560
1.157227	1.654589
1.157715	1.654665
1.158203	1.654406
1.158691	1.654551
1.159180	1.654539
1.159668	1.654385
1.160156	1.654386
1.160645	1.654680
1.161133	1.654532
1.161621	1.654732
1.162109	1.654018
1.162598	1.654221
1.163086	1.654639
1.163574	1.654566
1.164062	1.654305
1.164551	1.654354
1.165039	1.654656
1.165527	1.654392
1.166016	1.654543
1.166504	1.654361
1.166992	1.654587
1.167480	1.654468
1.167969	1.654624
1.168457	1.654359
1.168945	1.654533
1.169434	1.654660
1.169922	1.654463
1.170410	1.654431
1.170898	1.654467
1.171387	1.654323
1.171875	1.654289
1.172363	1.654211
1.172852	1.654434
1.173340	1.654502
1.173828	1.654319
1.174316	1.654231
1.174805	1.654393
1.175293	1.654190
1.175781	1.654575
1.176270	1.654378
1.176758	1.654323
1.177246	1.654403
1.177734	1.654273
1.178223	1.654371
1.178711	1.654306
1.179199	1.654538
1.179687	1.654437
1.180176	1.654513
1.180664	1.654585
1.181152	1.654369
1.181641	1.654386
1.182129	1.654231
1.182617	1.654497
1.183105	1.654663
1.183594	1.654499
1.184082	1.654486
1.184570	1.654388
1.185059	1.654442
1.185547	1.654611
1.186035	1.654517
1.186523	1.654435
1.187012	1.654276
1.187500	1.654834
1.187988	1.654618
1.188477	1.654604
1.188965	1.654572
1.189453	1.654259
1.189941	1.654567
1.190430	1.654893
1.190918	1.654572
1.191406	1.654231
1.191895	1.654598
1.192383	1.654624
1.192871	1.654707
1.193359	1.654639
1.193848	1.654571
1.194336	1.654639
1.194824	1.654701
1.195312	1.654687
1.195801	1.654629
1.196289	1.654682
1.196777	1.654770
1.197266	1.654937
1.197754	1.654943
1.198242	1.654709
1.198730	1.654775
1.199219	1.654621
1.199707	1.654683
1.200195	1.654637
1.200684	1.654458
1.201172	1.654375
1.201660	1.654671
1.202148	1.655022
1.202637	1.654904
1.203125	1.654782
1.203613	1.654741
1.204102	1.654872
1.204590	1.654999
1.205078	1.654680
1.205566	1.655115
1.206055	1.655097
1.206543	1.655244
1.207031	1.655156
1.207520	1.654930
1.208008	1.654849
1.208496	1.654915
1.208984	1.655021
1.209473	1.655109
1.209961	1.655006
1.210449	1.654958
1.210937	1.654830
1.211426	1.655002
1.211914	1.654991
1.212402	1.654922
1.212891	1.654995
1.213379	1.655033
1.213867	1.654975
1.214355	1.654942
1.214844	1.654744
1.215332	1.654939
1.215820	1.655152
1.216309	1.655142
1.216797	1.655082
1.217285	1.654854
1.217773	1.654636
1.218262	1.654679
1.218750	1.654754
1.219238	1.655025
1.219727	1.654808
1.220215	1.654846
1.220703	1.654835
1.221191	1.654612
1.221680	1.654740
1.222168	1.654588
1.222656	1.654757
1.223145	1.654895
1.223633	1.654809
1.224121	1.654760
1.224609	1.654671
1.225098	1.654605
1.225586	1.654872
1.226074	1.654981
1.226562	1.654813
1.227051	1.654691
1.227539	1.654574
1.228027	1.654658
1.228516	1.654891
1.229004	1.654806
1.229492	1.654375
1.229980	1.654481
1.230469	1.654679
1.230957	1.654494
1.231445	1.654431
1.231934	1.654556
1.232422	1.654389
1.232910	1.654818
1.233398	1.654737
1.233887	1.654676
1.234375	1.654694
1.234863	1.654624
1.235352	1.654647
1.235840	1.654571
1.236328	1.654483
1.236816	1.654174
1.237305	1.654635
1.237793	1.654647
1.238281	1.654589
1.238770	1.654753
1.239258	1.654417
1.239746	1.654480
1.240234	1.654395
1.240723	1.654367
1.241211	1.654442
1.241699	1.654471
1.242187	1.654396
1.242676	1.654516
1.243164	1.654253
1.243652	1.654459
1.244141	1.654348
1.244629	1.654353
1.245117	1.654466
1.245605	1.654413
1.246094	1.654502
1.246582	1.654484
1.247070	1.654552
1.247559	1.654582
1.248047	1.654459
1.248535	1.654492
1.249023	1.654406
1.249512	1.654715
1.250000	1.654652
1.250488	1.654488
1.250977	1.654309
1.251465	1.654301
1.251953	1.654402
1.252441	1.654356
1.252930	1.654379
1.253418	1.654179
1.253906	1.654379
1.254395	1.654481
1.254883	1.654460
1.255371	1.654331
1.255859	1.654264
1.256348	1.654437
1.256836	1.654443
1.257324	1.654419
1.257812	1.654166
1.258301	1.654431
1.258789	1.654385
1.259277	1.654444
1.259766	1.654419
1.260254	1.654491
1.260742	1.654349
1.261230	1.654133
1.261719	1.654279
1.262207	1.654997
1.262695	1.654652
1.263184	1.654074
1.263672	1.654438
1.264160	1.654730
1.264648	1.654739
1.265137	1.654612
1.265625	1.654471
1.266113	1.654114
1.266602	1.654616
1.267090	1.654449
1.267578	1.654835
1.268066	1.654701
1.268555	1.654491
1.269043	1.654685
1.269531	1.654728
1.270020	1.654398
1.270508	1.654495
1.270996	1.654481
1.271484	1.654451
1.271973	1.654433
1.272461	1.654493
1.272949	1.654388
1.273437	1.654574
1.273926	1.654419
1.274414	1.654471
1.274902	1.654502
1.275391	1.654503
1.275879	1.654610
1.276367	1.654672
1.276855	1.654610
1.277344	1.654410
1.277832	1.654818
1.278320	1.654714
1.278809	1.654795
1.279297	1.654444
1.279785	1.654175
1.280273	1.654599
1.280762	1.654552
1.281250	1.654489
1.281738	1.654298
1.282227	1.654793
1.282715	1.654539
1.283203	1.654506
1.283691	1.654717
1.284180	1.654735
1.284668	1.654594
1.285156	1.654727
1.285645	1.654640
1.286133	1.654685
1.286621	1.654477
1.287109	1.654708
1.287598	1.654780
1.288086	1.654711
1.288574	1.654743
1.289062	1.654701
1.289551	1.654630
1.290039	1.654622
1.290527	1.655013
1.291016	1.654787
1.291504	1.654632
1.291992	1.654684
1.292480	1.654651
1.292969	1.654657
1.293457	1.654754
1.293945	1.654377
1.294434	1.654323
1.294922	1.654597
1.295410	1.654557
1.295898	1.654282
1.296387	1.654393
1.296875	1.654565
1.297363	1.654708
1.297852	1.654749
1.298340	1.654542
1.298828	1.654517
1.299316	1.654441
1.299805	1.654463
1.300293	1.654664
1.300781	1.654711
1.301270	1.654427
1.301758	1.654690
1.302246	1.654467
1.302734	1.654553
1.303223	1.654808
1.303711	1.654549
1.304199	1.654374
1.304687	1.654628
1.305176	1.654708
1.305664	1.654528
1.306152	1.654309
1.306641	1.654510
1.307129	1.654338
1.307617	1.654483
1.308105	1.654484
1.308594	1.654201
1.309082	1.654285
1.309570	1.654276
1.310059	1.654544
1.310547	1.654513
1.311035	1.654318
1.311523	1.654123
1.312012	1.654665
1.312500	1.654719
1.312988	1.654422
1.313477	1.654481
1.313965	1.654367
1.314453	1.654496
1.314941	1.654435
1.315430	1.654367
1.315918	1.654462
1.316406	1.654469
1.316895	1.654395
1.317383	1.654552
1.317871	1.654189
1.318359	1.654534
1.318848	1.654745
1.319336	1.654362
1.319824	1.654321
1.320312	1.654439
1.320801	1.654337
1.321289	1.654288
1.321777	1.654425
1.322266	1.654247
1.322754	1.654056
1.323242	1.654114
1.323730	1.654159
1.324219	1.654103
1.324707	1.654218
1.325195	1.654258
1.325684	1.654327
1.326172	1.654250
1.326660	1.654399
1.327148	1.654400
1.327637	1.654507
1.328125	1.654405
1.328613	1.654508
1.329102	1.654594
1.329590	1.654366
1.330078	1.654438
1.330566	1.654377
1.331055	1.654436
1.331543	1.654647
1.332031	1.654466
1.332520	1.654357
1.333008	1.654082
1.333496	1.653929
1.333984	1.654354
1.334473	1.654311
1.334961	1.654158
1.335449	1.653872
1.335937	1.654394
1.336426	1.654099
1.336914	1.654167
1.337402	1.654034
1.337891	1.654182
1.338379	1.654291
1.338867	1.653998
1.339355	1.654131
1.339844	1.653942
1.340332	1.654279
1.340820	1.654215
1.341309	1.654363
1.341797	1.654245
1.342285	1.654112
1.342773	1.654304
1.343262	1.654024
1.343750	1.654243
1.344238	1.654225
1.344727	1.654162
1.345215	1.654151
1.345703	1.654161
1.346191	1.654142
1.346680	1.654239
1.347168	1.654220
1.347656	1.654322
1.348145	1.654164
1.348633	1.654042
1.349121	1.654110
1.349609	1.654265
1.350098	1.654426
1.350586	1.654175
1.351074	1.654228
1.351562	1.654388
1.352051	1.654089
1.352539	1.654516
1.353027	1.654205
1.353516	1.654349
1.354004	1.654193
1.354492	1.653993
1.354980	1.654259
1.355469	1.654293
1.355957	1.654764
1.356445	1.654718
1.356934	1.654394
1.357422	1.654696
1.357910	1.654589
1.358398	1.654460
1.358887	1.654519
1.359375	1.654807
1.359863	1.655087
1.360352	1.654701
1.360840	1.654488
1.361328	1.654382
1.361816	1.654392
1.362305	1.654693
1.362793	1.654807
1.363281	1.654558
1.363770	1.654596
1.364258	1.654353
1.364746	1.654568
1.365234	1.654665
1.365723	1.654674
1.366211	1.654536
1.366699	1.654754
1.367187	1.654895
1.367676	1.654754
1.368164	1.654880
1.368652	1.654617
1.369141	1.654921
1.369629	1.655090
1.370117	1.654832
1.370605	1.654576
1.371094	1.654681
1.371582	1.655137
1.372070	1.655051
1.372559	1.655016
1.373047	1.654909
1.373535	1.654877
1.374023	1.654951
1.374512	1.655046
1.375000	1.655050
1.375488	1.655106
1.375977	1.654889
1.376465	1.655044
1.376953	1.654956
1.377441	1.655197
1.377930	1.655055
1.378418	1.655101
1.378906	1.654929
1.379395	1.655015
1.379883	1.654965
1.380371	1.655231
1.380859	1.655180
1.381348	1.655091
1.381836	1.654863
1.382324	1.655033
1.382812	1.654902
1.383301	1.655157
1.383789	1.655124
1.384277	1.654714
1.384766	1.654903
1.385254	1.654783
1.385742	1.654941
1.386230	1.655047
1.386719	1.654910
1.387207	1.654871
1.387695	1.654850
1.388184	1.654641
1.388672	1.655061
1.389160	1.655149
1.389648	1.654881
1.390137	1.654779
1.390625	1.654784
1.391113	1.654949
1.391602	1.655130
1.392090	1.654928
1.392578	1.654338
1.393066	1.654655
1.393555	1.654950
1.394043	1.654688
1.394531	1.654813
1.395020	1.654781
1.395508	1.654881
1.395996	1.654738
1.396484	1.654665
1.396973	1.654784
1.397461	1.654989
1.397949	1.654735
1.398437	1.654744
1.398926	1.654894
1.399414	1.654504
1.399902	1.654653
1.400391	1.654546
1.400879	1.654441
1.401367	1.654454
1.401855	1.654398
1.402344	1.654264
1.402832	1.654345
1.403320	1.654217
1.403809	1.654420
1.404297	1.654303
1.404785	1.654356
1.405273	1.654419
1.405762	1.654294
1.406250	1.654316
1.406738	1.654233
1.407227	1.654478
1.407715	1.654418
1.408203	1.654415
1.408691	1.654235
1.409180	1.654229
1.409668	1.654467
1.410156	1.654516
1.410645	1.654364
1.411133	1.654244
1.411621	1.653740
1.412109	1.654316
1.412598	1.654447
1.413086	1.654049
1.413574	1.653614
1.414062	1.653987
1.414551	1.654147
1.415039	1.654170
1.415527	1.653852
1.416016	1.654076
1.416504	1.653990
1.416992	1.653937
1.417480	1.653977
1.417969	1.654129
1.418457	1.653996
1.418945	1.653757
1.419434	1.653998
1.419922	1.654015
1.420410	1.653993
1.420898	1.653868
1.421387	1.653799
1.421875	1.653788
1.422363	1.654081
1.422852	1.653948
1.423340	1.654062
1.423828	1.653926
1.424316	1.653923
1.424805	1.654070
1.425293	1.653869
1.425781	1.653839
1.426270	1.653559
1.426758	1.653962
1.427246	1.654267
1.427734	1.654067
1.428223	1.653857
1.428711	1.653831
1.429199	1.654103
1.429687	1.653862
1.430176	1.653822
1.430664	1.654324
1.431152	1.654027
1.431641	1.653947
1.432129	1.654040
1.432617	1.653924
1.433105	1.653976
1.433594	1.654139
1.434082	1.654110
1.434570	1.653872
1.435059	1.654042
1.435547	1.654057
1.436035	1.654197
1.436523	1.654229
1.437012	1.654359
1.437500	1.654388
1.437988	1.654087
1.438477	1.654194
1.438965	1.654404
1.439453	1.654312
1.439941	1.653954
1.440430	1.654143
1.440918	1.654253
1.441406	1.654102
1.441895	1.654228
1.442383	1.654130
1.442871	1.654121
1.443359	1.654132
1.443848	1.654182
1.444336	1.654160
1.444824	1.654200
1.445312	1.654113
1.445801	1.654354
1.446289	1.654228
1.446777	1.654379
1.447266	1.654338
1.447754	1.654483
1.448242	1.654629
1.448730	1.654649
1.449219	1.654706
1.449707	1.654261
1.450195	1.654168
1.450684	1.654641
1.451172	1.654618
1.451660	1.654801
1.452148	1.654629
1.452637	1.654483
1.453125	1.654629
1.453613	1.654683
1.454102	1.654506
1.454590	1.654626
1.455078	1.654468
1.455566	1.654652
1.456055	1.654552
1.456543	1.654308
1.457031	1.654356
1.457520	1.654478
1.458008	1.655031
1.458496	1.654845
1.458984	1.654818
1.459473	1.654640
1.459961	1.654635
1.460449	1.654765
1.460937	1.654630
1.461426	1.654979
1.461914	1.654951
1.462402	1.654830
1.462891	1.654885
1.463379	1.654834
1.463867	1.654832
1.464355	1.654752
1.464844	1.654968
1.465332	1.654865
1.465820	1.654804
1.466309	1.654817
1.466797	1.654765
1.467285	1.654884
1.467773	1.655056
1.468262	1.654697
1.468750	1.654968
1.469238	1.654827
1.469727	1.654952
1.470215	1.654953
1.470703	1.654786
1.471191	1.654863
1.471680	1.654923
1.472168	1.654668
1.472656	1.654788
1.473145	1.654927
1.473633	1.655045
1.474121	1.654754
1.474609	1.654906
1.475098	1.654917
1.475586	1.654936
1.476074	1.654671
1.476562	1.654766
1.477051	1.655114
1.477539	1.655267
1.478027	1.654913
1.478516	1.655031
1.479004	1.654791
1.479492	1.655024
1.479980	1.655217
1.480469	1.654960
1.480957	1.654762
1.481445	1.654670
1.481934	1.654894
1.482422	1.655003
1.482910	1.654938
1.483398	1.654574
1.483887	1.654545
1.484375	1.654989
1.484863	1.654718
1.485352	1.654736
1.485840	1.654638
1.486328	1.654653
1.486816	1.654873
1.487305	1.654630
1.487793	1.654649
1.488281	1.654449
1.488770	1.655036
1.489258	1.654996
1.489746	1.654946
1.490234	1.654871
1.490723	1.654768
1.491211	1.654696
1.491699	1.654678
1.492187	1.654888
1.492676	1.654859
1.493164	1.654636
1.493652	1.654551
1.494141	1.654654
1.494629	1.654549
1.495117	1.654509
1.495605	1.654625
1.496094	1.654740
1.496582	1.654693
1.497070	1.654235
1.497559	1.654178
1.498047	1.654373
1.498535	1.654404
1.499023	1.654382
1.499512	1.654238
1.500000	1.654442
1.500488	1.654204
1.500977	1.654240
1.501465	1.654300
1.501953	1.654322
1.502441	1.654377
1.502930	1.654490
1.503418	1.654393
1.503906	1.654571
1.504395	1.654407
1.504883	1.654370
1.505371	1.654352
1.505859	1.654442
1.506348	1.654319
1.506836	1.654222
1.507324	1.654366
1.507812	1.654296
1.508301	1.654485
1.508789	1.654307
1.509277	1.654101
1.509766	1.654265
1.510254	1.654035
1.510742	1.654234
1.511230	1.654325
1.511719	1.653907
1.512207	1.653962
1.512695	1.654035
1.513184	1.654316
1.513672	1.654203
1.514160	1.653909
1.514648	1.653818
1.515137	1.654072
1.515625	1.654091
1.516113	1.654023
1.516602	1.654139
1.517090	1.653961
1.517578	1.654136
1.518066	1.654089
1.518555	1.654004
1.519043	1.653913
1.519531	1.654042
1.520020	1.653938
1.520508	1.654085
1.520996	1.654135
1.521484	1.653942
1.521973	1.654055
1.522461	1.653834
1.522949	1.654011
1.523437	1.654098
1.523926	1.653883
1.524414	1.653657
1.524902	1.653913
1.525391	1.654193
1.525879	1.654041
1.526367	1.653878
1.526855	1.653854
1.527344	1.654007
1.527832	1.654061
1.528320	1.653901
1.528809	1.654342
1.529297	1.654287
1.529785	1.654173
1.530273	1.654176
1.530762	1.653988
1.531250	1.653941
1.531738	1.654243
1.532227	1.654264
1.532715	1.654061
1.533203	1.654212
1.533691	1.654220
1.534180	1.654192
1.534668	1.654417
1.535156	1.654439
1.535645	1.654428
1.536133	1.653866
1.536621	1.653996
1.537109	1.654305
1.537598	1.654424
1.538086	1.654231
1.538574	1.654110
1.539062	1.654463
1.539551	1.654264
1.540039	1.654357
1.540527	1.654326
1.541016	1.654254
1.541504	1.654371
1.541992	1.654525
1.542480	1.654338
1.542969	1.654460
1.543457	1.654334
1.543945	1.654481
1.544434	1.654637
1.544922	1.654499
1.545410	1.654481
1.545898	1.654647
1.546387	1.654956
1.546875	1.654948
1.547363	1.654879
1.547852	1.654724
1.548340	1.654586
1.548828	1.654702
1.549316	1.654779
1.549805	1.654882
1.550293	1.654957
1.550781	1.654686
1.551270	1.654668
1.551758	1.654770
1.552246	1.654722
1.552734	1.654811
1.553223	1.654696
1.553711	1.654889
1.554199	1.654865
1.554687	1.655019
1.555176	1.654910
1.555664	1.654848
1.556152	1.655006
1.556641	1.655016
1.557129	1.655208
1.557617	1.655103
1.558105	1.655169
1.558594	1.655344
1.559082	1.655057
1.559570	1.655184
1.560059	1.655261
1.560547	1.655042
1.561035	1.655013
1.561523	1.655177
1.562012	1.654931
1.562500	1.655274
1.562988	1.655285
1.563477	1.655180
1.563965	1.655143
1.564453	1.655167
1.564941	1.655039
1.565430	1.655020
1.565918	1.654945
1.566406	1.654983
1.566895	1.655238
1.567383	1.655345
1.567871	1.655264
1.568359	1.655238
1.568848	1.655255
1.569336	1.655204
1.569824	1.654929
1.570312	1.654973
1.570801	1.655457
1.571289	1.655620
1.571777	1.655014
1.572266	1.655122
1.572754	1.655283
1.573242	1.655500
1.573730	1.655282
1.574219	1.655188
1.574707	1.655169
1.575195	1.655281
1.575684	1.655416
1.576172	1.655320
1.576660	1.655290
1.577148	1.655248
1.577637	1.655262
1.578125	1.655195
1.578613	1.655054
1.579102	1.655158
1.579590	1.655175
1.580078	1.654993
1.580566	1.654976
1.581055	1.654552
1.581543	1.654895
1.582031	1.654999
1.582520	1.654831
1.583008	1.654720
1.583496	1.655007
1.583984	1.654928
1.584473	1.654915
1.584961	1.655261
1.585449	1.655091
1.585937	1.654971
1.586426	1.654840
1.586914	1.654835
1.587402	1.654842
1.587891	1.654903
1.588379	1.654716
1.588867	1.654786
1.589355	1.654876
1.589844	1.654632
1.590332	1.654656
1.590820	1.654540
1.591309	1.654486
1.591797	1.654582
1.592285	1.654586
1.592773	1.654378
1.593262	1.654334
1.593750	1.654610
1.594238	1.654543
1.594727	1.654673
1.595215	1.654571
1.595703	1.654447
1.596191	1.654461
1.596680	1.654494
1.597168	1.654809
1.597656	1.654763
1.598145	1.654542
1.598633	1.654652
1.599121	1.654569
1.599609	1.654637
1.600098	1.654655
1.600586	1.654409
1.601074	1.654403
1.601562	1.654507
1.602051	1.654425
1.602539	1.654499
1.603027	1.654297
1.603516	1.654310
1.604004	1.654263
1.604492	1.654588
1.604980	1.654345
1.605469	1.654178
1.605957	1.654114
1.606445	1.654140
1.606934	1.654134
1.607422	1.654300
1.607910	1.654118
1.608398	1.653849
1.608887	1.654247
1.609375	1.654384
1.609863	1.654262
1.610352	1.654227
1.610840	1.654184
1.611328	1.654256
1.611816	1.654222
1.612305	1.654333
1.612793	1.654589
1.613281	1.654594
1.613770	1.654319
1.614258	1.654605
1.614746	1.654419
1.615234	1.654257
1.615723	1.654600
1.616211	1.654463
1.616699	1.654444
1.617187	1.654342
1.617676	1.654408
1.618164	1.654141
1.618652	1.654356
1.619141	1.654238
1.619629	1.654106
1.620117	1.654486
1.620605	1.654284
1.621094	1.654408
1.621582	1.654278
1.622070	1.654030
1.622559	1.654190
1.623047	1.654495
1.623535	1.654212
1.624023	1.654212
1.624512	1.654555
1.625000	1.654560
1.625488	1.654636
1.625977	1.654691
1.626465	1.654814
1.626953	1.654766
1.627441	1.654897
1.627930	1.655023
1.628418	1.654982
1.628906	1.654751
1.629395	1.654682
1.629883	1.654818
1.630371	1.654799
1.630859	1.654846
1.631348	1.654763
1.631836	1.654852
1.632324	1.654658
1.632812	1.654342
1.633301	1.654613
1.633789	1.654719
1.634277	1.654642
1.634766	1.654609
1.635254	1.654757
1.635742	1.654937
1.636230	1.654694
1.636719	1.654629
1.637207	1.654721
1.637695	1.654934
1.638184	1.655003
1.638672	1.654731
1.639160	1.654592
1.639648	1.654883
1.640137	1.655385
1.640625	1.655137
1.641113	1.655025
1.641602	1.654915
1.642090	1.654998
1.642578	1.655186
1.643066	1.655007
1.643555	1.655169
1.644043	1.655150
1.644531	1.655076
1.645020	1.654956
1.645508	1.655057
1.645996	1.654871
1.646484	1.655182
1.646973	1.655300
1.647461	1.655257
1.647949	1.655003
1.648437	1.654695
1.648926	1.655070
1.649414	1.655247
1.649902	1.655111
1.650391	1.654842
1.650879	1.655048
1.651367	1.655089
1.651855	1.655105
1.652344	1.655214
1.652832	1.654957
1.653320	1.654988
1.653809	1.655023
1.654297	1.654955
1.654785	1.655262
1.655273	1.655069
1.655762	1.655052
1.656250	1.655195
1.656738	1.655351
1.657227	1.655092
1.657715	1.655143
1.658203	1.655155
1.658691	1.655155
1.659180	1.655469
1.659668	1.655336
1.660156	1.655267
1.660645	1.655010
1.661133	1.654862
1.661621	1.655346
1.662109	1.655478
1.662598	1.654995
1.663086	1.654888
1.663574	1.655113
1.664062	1.655106
1.664551	1.655244
1.665039	1.655037
1.665527	1.655119
1.666016	1.655126
1.666504	1.655239
1.666992	1.655305
1.667480	1.655573
1.667969	1.655466
1.668457	1.655395
1.668945	1.655269
1.669434	1.654917
1.669922	1.655397
1.670410	1.655295
1.670898	1.655244
1.671387	1.655054
1.671875	1.655485
1.672363	1.655203
1.672852	1.655056
1.673340	1.655147
1.673828	1.655153
1.674316	1.655248
1.674805	1.655112
1.675293	1.654934
1.675781	1.654875
1.676270	1.655156
1.676758	1.655329
1.677246	1.654965
1.677734	1.654913
1.678223	1.655175
1.678711	1.655161
1.679199	1.655011
1.679687	1.654819
1.680176	1.655215
1.680664	1.655161
1.681152	1.654996
1.681641	1.654943
1.682129	1.654715
1.682617	1.655028
1.683105	1.655111
1.683594	1.654904
1.684082	1.654785
1.684570	1.655020
1.685059	1.655036
1.685547	1.654972
1.686035	1.654961
1.686523	1.654986
1.687012	1.655014
1.687500	1.654682
1.687988	1.654709
1.688477	1.654874
1.688965	1.654965
1.689453	1.654862
1.689941	1.654910
1.690430	1.655050
1.690918	1.654833
1.691406	1.654828
1.691895	1.654619
1.692383	1.654702
1.692871	1.654949
1.693359	1.655017
1.693848	1.654803
1.694336	1.654670
1.694824	1.654844
1.695312	1.655159
1.695801	1.655191
1.696289	1.654873
1.696777	1.654577
1.697266	1.655058
1.697754	1.654982
1.698242	1.654971
1.698730	1.655040
1.699219	1.654792
1.699707	1.654826
1.700195	1.654638
1.700684	1.654784
1.701172	1.654785
1.701660	1.654721
1.702148	1.654392
1.702637	1.654838
1.703125	1.654927
1.703613	1.654641
1.704102	1.654709
1.704590	1.655024
1.705078	1.654976
1.705566	1.654798
1.706055	1.654671
1.706543	1.654770
1.707031	1.655112
1.707520	1.655155
1.708008	1.655022
1.708496	1.655017
1.708984	1.654994
1.709473	1.655281
1.709961	1.654915
1.710449	1.654871
1.710937	1.654926
1.711426	1.655385
1.711914	1.655003
1.712402	1.654933
1.712891	1.655016
1.713379	1.654987
1.713867	1.655039
1.714355	1.655133
1.714844	1.654879
1.715332	1.654847
1.715820	1.655119
1.716309	1.655086
1.716797	1.655164
1.717285	1.655236
1.717773	1.655292
1.718262	1.654879
1.718750	1.654978
1.719238	1.655161
1.719727	1.655167
1.720215	1.655094
1.720703	1.654957
1.721191	1.655328
1.721680	1.655059
1.722168	1.655043
1.722656	1.655056
1.723145	1.655166
1.723633	1.655130
1.724121	1.655234
1.724609	1.654964
1.725098	1.655024
1.725586	1.654937
1.726074	1.655126
1.726562	1.655142
1.727051	1.655105
1.727539	1.655095
1.728027	1.655020
1.728516	1.655000
1.729004	1.655228
1.729492	1.655240
1.729980	1.655100
1.730469	1.654858
1.730957	1.655169
1.731445	1.655092
1.731934	1.654935
1.732422	1.655012
1.732910	1.655084
1.733398	1.655238
1.733887	1.654674
1.734375	1.654862
1.734863	1.654647
1.735352	1.655089
1.735840	1.655137
1.736328	1.655109
1.736816	1.655095
1.737305	1.654908
1.737793	1.655050
1.738281	1.655062
1.738770	1.655104
1.739258	1.654691
1.739746	1.654785
1.740234	1.655012
1.740723	1.654896
1.741211	1.654886
1.741699	1.654849
1.742187	1.654995
1.742676	1.654873
1.743164	1.655075
1.743652	1.654853
1.744141	1.654698
1.744629	1.655092
1.745117	1.655363
1.745605	1.654951
1.746094	1.654984
1.746582	1.654894
1.747070	1.655059
1.747559	1.655209
1.748047	1.655134
1.748535	1.654693
1.749023	1.655001
1.749512	1.655147
1.750000	1.655199
1.750488	1.655296
1.750977	1.655089
1.751465	1.655098
1.751953	1.654993
1.752441	1.654980
1.752930	1.655147
1.753418	1.655211
1.753906	1.654899
1.754395	1.654933
1.754883	1.655298
1.755371	1.655067
1.755859	1.654842
1.756348	1.655033
1.756836	1.654945
1.757324	1.655118
1.757812	1.655217
1.758301	1.655111
1.758789	1.655033
1.759277	1.654873
1.759766	1.654983
1.760254	1.655546
1.760742	1.655238
1.761230	1.654646
1.761719	1.655159
1.762207	1.655102
1.762695	1.655244
1.763184	1.655114
1.763672	1.655062
1.764160	1.654946
1.764648	1.654907
1.765137	1.654837
1.765625	1.655029
1.766113	1.654954
1.766602	1.654827
1.767090	1.654834
1.767578	1.654833
1.768066	1.654549
1.768555	1.654749
1.769043	1.654630
1.769531	1.654638
1.770020	1.654660
1.770508	1.654624
1.770996	1.654442
1.771484	1.654700
1.771973	1.654612
1.772461	1.654598
1.772949	1.654524
1.773437	1.654734
1.773926	1.654550
1.774414	1.654652
1.774902	1.654425
1.775391	1.654646
1.775879	1.654776
1.776367	1.654912
1.776855	1.654871
1.777344	1.654639
1.777832	1.654630
1.778320	1.654809
1.778809	1.654677
1.779297	1.654472
1.779785	1.654444
1.780273	1.654776
1.780762	1.654558
1.781250	1.654609
1.781738	1.654420
1.782227	1.654499
1.782715	1.654305
1.783203	1.654402
1.783691	1.654317
1.784180	1.654263
1.784668	1.654435
1.785156	1.654488
1.785645	1.654361
1.786133	1.654407
1.786621	1.654489
1.787109	1.654392
1.787598	1.654226
1.788086	1.654419
1.788574	1.654936
1.789062	1.654587
1.789551	1.654270
1.790039	1.654563
1.790527	1.654386
1.791016	1.654734
1.791504	1.654613
1.791992	1.654237
1.792480	1.654243
1.792969	1.654727
1.793457	1.654536
1.793945	1.654549
1.794434	1.654356
1.794922	1.654608
1.795410	1.654627
1.795898	1.654217
1.796387	1.654416
1.796875	1.654320
1.797363	1.654537
1.797852	1.654752
1.798340	1.654764
1.798828	1.654592
1.799316	1.654560
1.799805	1.654647
1.800293	1.654516
1.800781	1.654683
1.801270	1.654980
1.801758	1.654788
1.802246	1.654378
1.802734	1.654777
1.803223	1.654758
1.803711	1.654881
1.804199	1.654707
1.804687	1.654870
1.805176	1.654741
1.805664	1.654643
1.806152	1.654689
1.806641	1.654850
1.807129	1.654843
1.807617	1.654835
1.808105	1.654728
1.808594	1.654713
1.809082	1.654608
1.809570	1.654906
1.810059	1.654760
1.810547	1.654566
1.811035	1.654580
1.811523	1.654529
1.812012	1.654691
1.812500	1.654749
1.812988	1.654662
1.813477	1.654635
1.813965	1.654753
1.814453	1.654765
1.814941	1.654992
1.815430	1.654953
1.815918	1.654796
1.816406	1.654925
1.816895	1.655072
1.817383	1.655034
1.817871	1.654996
1.818359	1.654889
1.818848	1.654897
1.819336	1.655237
1.819824	1.655306
1.820312	1.655140
1.820801	1.655003
1.821289	1.654976
1.821777	1.655000
1.822266	1.654963
1.822754	1.654754
1.823242	1.654733
1.823730	1.654983
1.824219	1.655162
1.824707	1.654990
1.825195	1.654933
1.825684	1.654778
1.826172	1.654897
1.826660	1.654713
1.827148	1.654829
1.827637	1.655271
1.828125	1.655157
1.828613	1.654997
1.829102	1.655169
1.829590	1.655057
1.830078	1.655192
1.830566	1.655211
1.831055	1.655029
1.831543	1.654812
1.832031	1.655126
1.832520	1.655004
1.833008	1.655081
1.833496	1.655083
1.833984	1.654970
1.834473	1.654906
1.834961	1.654819
1.835449	1.654724
1.835937	1.654863
1.836426	1.654850
1.836914	1.654782
1.837402	1.654799
1.837891	1.654718
1.838379	1.654677
1.838867	1.654667
1.839355	1.654874
1.839844	1.654848
1.840332	1.654782
1.840820	1.654696
1.841309	1.654721
1.841797	1.654713
1.842285	1.654514
1.842773	1.654760
1.843262	1.655085
1.843750	1.654912
1.844238	1.654882
1.844727	1.654785
1.845215	1.654726
1.845703	1.654777
1.846191	1.655029
1.846680	1.654713
1.847168	1.654534
1.847656	1.654876
1.848145	1.654748
1.848633	1.654575
1.849121	1.654662
1.849609	1.654413
1.850098	1.654538
1.850586	1.654540
1.851074	1.654364
1.851562	1.654485
1.852051	1.654389
1.852539	1.654456
1.853027	1.654472
1.853516	1.654312
1.854004	1.654226
1.854492	1.654167
1.854980	1.654557
1.855469	1.654619
1.855957	1.654445
1.856445	1.654324
1.856934	1.654170
1.857422	1.654381
1.857910	1.654342
1.858398	1.654516
1.858887	1.654543
1.859375	1.654326
1.859863	1.654341
1.860352	1.654256
1.860840	1.654028
1.861328	1.654132
1.861816	1.654265
1.862305	1.654172
1.862793	1.654099
1.863281	1.653903
1.863770	1.653825
1.864258	1.654006
1.864746	1.653936
1.865234	1.653823
1.865723	1.654057
1.866211	1.653840
1.866699	1.653959
1.867187	1.654050
1.867676	1.654071
1.868164	1.653981
1.868652	1.653669
1.869141	1.653813
1.869629	1.654007
1.870117	1.654005
1.870605	1.653895
1.871094	1.653849
1.871582	1.654123
1.872070	1.653976
1.872559	1.654114
1.873047	1.653924
1.873535	1.653881
1.874023	1.653844
1.874512	1.653907
1.875000	1.653882
1.875488	1.653720
1.875977	1.653744
1.876465	1.653868
1.876953	1.653886
1.877441	1.653824
1.877930	1.653730
1.878418	1.653870
1.878906	1.654007
1.879395	1.654106
1.879883	1.654011
1.880371	1.653940
1.880859	1.653919
1.881348	1.653671
1.881836	1.653780
1.882324	1.654164
1.882812	1.654053
1.883301	1.653791
1.883789	1.654182
1.884277	1.654335
1.884766	1.654264
1.885254	1.654186
1.885742	1.654195
1.886230	1.654223
1.886719	1.654118
1.887207	1.654195
1.887695	1.654206
1.888184	1.654289
1.888672	1.654399
1.889160	1.654304
1.889648	1.654117
1.890137	1.654334
1.890625	1.654362
1.891113	1.654134
1.891602	1.654131
1.892090	1.654208
1.892578	1.654097
1.893066	1.654342
1.893555	1.654515
1.894043	1.654366
1.894531	1.654398
1.895020	1.654424
1.895508	1.654291
1.895996	1.654287
1.896484	1.654538
1.896973	1.654550
1.897461	1.654407
1.897949	1.654412
1.898437	1.654624
1.898926	1.654751
1.899414	1.654568
1.899902	1.654378
1.900391	1.654813
1.900879	1.654583
1.901367	1.654651
1.901855	1.654745
1.902344	1.654542
1.902832	1.654654
1.903320	1.654260
1.903809	1.654486
1.904297	1.654568
1.904785	1.654341
1.905273	1.654266
1.905762	1.654679
1.906250	1.654663
1.906738	1.654602
1.907227	1.654655
1.907715	1.654524
1.908203	1.654806
1.908691	1.654734
1.909180	1.654716
1.909668	1.654440
1.910156	1.654759
1.910645	1.654989
1.911133	1.654834
1.911621	1.654821
1.912109	1.654746
1.912598	1.654847
1.913086	1.654721
1.913574	1.654494
1.914062	1.654825
1.914551	1.654943
1.915039	1.654580
1.915527	1.654680
1.916016	1.654757
1.916504	1.654762
1.916992	1.654717
1.917480	1.654915
1.917969	1.654895
1.918457	1.654557
1.918945	1.654530
1.919434	1.654876
1.919922	1.655121
1.920410	1.654703
1.920898	1.654679
1.921387	1.654496
1.921875	1.654637
1.922363	1.654834
1.922852	1.654776
1.923340	1.654619
1.923828	1.654530
1.924316	1.654679
1.924805	1.654698
1.925293	1.654713
1.925781	1.654702
1.926270	1.654515
1.926758	1.654644
1.927246	1.654559
1.927734	1.654694
1.928223	1.654599
1.928711	1.654276
1.929199	1.654478
1.929687	1.654426
1.930176	1.654425
1.930664	1.654224
1.931152	1.654335
1.931641	1.654500
1.932129	1.654575
1.932617	1.654569
1.933105	1.654233
1.933594	1.654364
1.934082	1.654325
1.934570	1.654308
1.935059	1.654182
1.935547	1.654231
1.936035	1.654014
1.936523	1.654297
1.937012	1.654493
1.937500	1.654365
1.937988	1.654178
1.938477	1.654176
1.938965	1.654456
1.939453	1.654231
1.939941	1.654112
1.940430	1.654142
1.940918	1.654112
1.941406	1.654118
1.941895	1.654034
1.942383	1.653908
1.942871	1.653913
1.943359	1.654009
1.943848	1.654021
1.944336	1.654026
1.944824	1.653773
1.945312	1.653684
1.945801	1.653781
1.946289	1.653883
1.946777	1.653702
1.947266	1.653495
1.947754	1.653960
1.948242	1.653741
1.948730	1.653962
1.949219	1.653869
1.949707	1.653882
1.950195	1.653826
1.950684	1.653719
1.951172	1.653653
1.951660	1.653991
1.952148	1.653668
1.952637	1.653491
1.953125	1.653781
1.953613	1.653819
1.954102	1.653522
1.954590	1.653564
1.955078	1.653559
1.955566	1.653769
1.956055	1.653769
1.956543	1.653533
1.957031	1.653450
1.957520	1.653618
1.958008	1.653855
1.958496	1.653897
1.958984	1.653700
1.959473	1.653447
1.959961	1.653492
1.960449	1.653732
1.960937	1.653461
1.961426	1.653566
1.961914	1.653626
1.962402	1.653544
1.962891	1.653602
1.963379	1.653500
1.963867	1.653706
1.964355	1.653599
1.964844	1.653537
1.965332	1.653595
1.965820	1.653930
1.966309	1.654019
1.966797	1.653705
1.967285	1.653855
1.967773	1.653914
1.968262	1.653954
1.968750	1.653732
1.969238	1.653827
1.969727	1.653855
1.970215	1.654034
1.970703	1.654052
1.971191	1.653706
1.971680	1.653703
1.972168	1.653874
1.972656	1.654212
1.973145	1.654054
1.973633	1.653996
1.974121	1.654004
1.974609	1.654009
1.975098	1.654128
1.975586	1.654381
1.976074	1.654256
1.976562	1.654173
1.977051	1.653991
1.977539	1.654471
1.978027	1.654507
1.978516	1.654378
1.979004	1.654259
1.979492	1.654499
1.979980	1.654678
1.980469	1.654513
1.980957	1.654513
1.981445	1.654313
1.981934	1.654436
1.982422	1.654592
1.982910	1.654608
1.983398	1.654444
1.983887	1.654424
1.984375	1.654553
1.984863	1.654713
1.985352	1.654536
1.985840	1.654592
1.986328	1.654562
1.986816	1.654647
1.987305	1.654776
1.987793	1.654917
1.988281	1.654837
1.988770	1.654623
1.989258	1.654733
1.989746	1.655097
1.990234	1.655080
1.990723	1.654829
1.991211	1.654871
1.991699	1.654929
1.992187	1.655002
1.992676	1.655003
1.993164	1.654750
1.993652	1.654873
1.994141	1.654925
1.994629	1.655117
1.995117	1.655070
1.995605	1.654845
1.996094	1.654690
1.996582	1.654870
1.997070	1.655002
1.997559	1.654933
1.998047	1.654911
1.998535	1.654870
1.999023	1.654909
1.999512	1.654838
2.000000	1.654716
2.000488	1.654904
2.000977	1.654655
2.001465	1.654871
2.001953	1.654804
2.002441	1.655019
2.002930	1.654893
2.003418	1.654921
2.003906	1.654917
2.004395	1.654861
2.004883	1.654896
2.005371	1.654696
2.005859	1.655031
2.006348	1.655268
2.006836	1.655052
2.007324	1.654901
2.007812	1.654744
2.008301	1.654531
2.008789	1.655157
2.009277	1.654928
2.009766	1.654682
2.010254	1.654636
2.010742	1.654991
2.011230	1.654821
2.011719	1.654794
2.012207	1.654591
2.012695	1.654745
2.013184	1.654557
2.013672	1.654654
2.014160	1.654578
2.014648	1.654521
2.015137	1.654605
2.015625	1.654696
2.016113	1.654700
2.016602	1.654503
2.017090	1.654472
2.017578	1.654478
2.018066	1.654905
2.018555	1.654666
2.019043	1.654694
2.019531	1.654607
2.020020	1.654694
2.020508	1.654555
2.020996	1.654427
2.021484	1.654750
2.021973	1.654584
2.022461	1.654409
2.022949	1.654582
2.023437	1.654347
2.023926	1.654466
2.024414	1.654632
2.024902	1.654391
2.025391	1.654417
2.025879	1.654560
2.026367	1.654442
2.026855	1.654333
2.027344	1.654400
2.027832	1.654572
2.028320	1.654355
2.028809	1.654455
2.029297	1.654298
2.029785	1.654461
2.030273	1.654490
2.030762	1.654405
2.031250	1.654345
2.031738	1.654406
2.032227	1.654258
2.032715	1.654383
2.033203	1.654494
2.033691	1.654420
2.034180	1.654336
2.034668	1.654446
2.035156	1.654221
2.035645	1.654360
2.036133	1.654292
2.036621	1.654502
2.037109	1.654444
2.037598	1.654608
2.038086	1.654619
2.038574	1.654429
2.039062	1.654270
2.039551	1.654505
2.040039	1.654687
2.040527	1.654314
2.041016	1.654135
2.041504	1.654274
2.041992	1.654248
2.042480	1.654359
2.042969	1.654377
2.043457	1.654004
2.043945	1.654025
2.044434	1.654316
2.044922	1.654402
2.045410	1.654215
2.045898	1.654259
2.046387	1.654221
2.046875	1.654490
2.047363	1.654575
2.047852	1.654365
2.048340	1.654286
2.048828	1.654323
2.049316	1.654541
2.049805	1.654560
2.050293	1.654314
2.050781	1.654308
2.051270	1.654403
2.051758	1.654404
2.052246	1.654436
2.052734	1.654353
2.053223	1.654126
2.053711	1.654182
2.054199	1.654125
2.054687	1.654281
2.055176	1.654578
2.055664	1.654483
2.056152	1.654635
2.056641	1.654540
2.057129	1.654443
2.057617	1.654618
2.058105	1.654497
2.058594	1.654560
2.059082	1.654515
2.059570	1.654676
2.060059	1.654850
2.060547	1.654493
2.061035	1.654585
2.061523	1.654466
2.062012	1.654547
2.062500	1.654547
2.062988	1.654588
2.063477	1.654647
2.063965	1.654751
2.064453	1.654867
2.064941	1.654690
2.065430	1.654256
2.065918	1.654722
2.066406	1.654914
2.066895	1.654691
2.067383	1.654592
2.067871	1.654487
2.068359	1.654806
2.068848	1.654729
2.069336	1.654716
2.069824	1.654630
2.070312	1.654630
2.070801	1.654706
2.071289	1.654915
2.071777	1.654805
2.072266	1.654736
2.072754	1.654561
2.073242	1.654977
2.073730	1.654845
2.074219	1.654765
2.074707	1.654810
2.075195	1.654868
2.075684	1.654922
2.076172	1.654665
2.076660	1.654831
2.077148	1.655240
2.077637	1.655173
2.078125	1.655028
2.078613	1.655004
2.079102	1.654690
2.079590	1.654928
2.080078	1.654937
2.080566	1.654787
2.081055	1.654837
2.081543	1.654433
2.082031	1.654605
2.082520	1.654839
2.083008	1.654863
2.083496	1.654766
2.083984	1.654682
2.084473	1.654928
2.084961	1.654780
2.085449	1.654813
2.085937	1.654767
2.086426	1.654796
2.086914	1.654792
2.087402	1.655046
2.087891	1.654738
2.088379	1.654795
2.088867	1.654716
2.089355	1.654782
2.089844	1.654872
2.090332	1.654933
2.090820	1.654931
2.091309	1.654708
2.091797	1.654490
2.092285	1.654807
2.092773	1.654720
2.093262	1.654755
2.093750	1.654851
2.094238	1.654757
2.094727	1.654694
2.095215	1.654021
2.095703	1.654523
2.096191	1.654449
2.096680	1.654547
2.097168	1.654630
2.097656	1.654646
2.098145	1.654711
2.098633	1.654513
2.099121	1.654622
2.099609	1.654533
2.100098	1.654583
2.100586	1.654607
2.101074	1.654639
2.101562	1.654436
2.102051	1.654601
2.102539	1.654461
2.103027	1.654532
2.103516	1.654678
2.104004	1.654568
2.104492	1.654639
2.104980	1.654394
2.105469	1.654392
2.105957	1.654523
2.106445	1.654485
2.106934	1.654497
2.107422	1.654484
2.107910	1.654452
2.108398	1.654262
2.108887	1.654551
2.109375	1.654531
2.109863	1.654247
2.110352	1.654499
2.110840	1.654427
2.111328	1.654381
2.111816	1.654604
2.112305	1.654450
2.112793	1.654356
2.113281	1.654366
2.113770	1.654432
2.114258	1.654333
2.114746	1.654348
2.115234	1.654310
2.115723	1.654282
2.116211	1.654442
2.116699	1.654510
2.117187	1.654464
2.117676	1.654435
2.118164	1.654228
2.118652	1.654428
2.119141	1.654525
2.119629	1.654096
2.120117	1.653829
2.120605	1.654270
2.121094	1.654079
2.121582	1.654589
2.122070	1.654159
2.122559	1.654202
2.123047	1.654113
2.123535	1.654116
2.124023	1.654508
2.124512	1.654245
2.125000	1.654317
2.125488	1.654307
2.125977	1.654400
2.126465	1.654549
2.126953	1.654349
2.127441	1.654420
2.127930	1.654201
2.128418	1.654311
2.128906	1.654572
2.129395	1.654340
2.129883	1.654640
2.130371	1.654532
2.130859	1.654320
2.131348	1.654431
2.131836	1.654226
2.132324	1.654400
2.132812	1.654484
2.133301	1.654242
2.133789	1.654307
2.134277	1.654361
2.134766	1.654099
2.135254	1.654109
2.135742	1.654350
2.136230	1.654454
2.136719	1.654320
2.137207	1.654292
2.137695	1.654437
2.138184	1.654513
2.138672	1.654331
2.139160	1.654283
2.139648	1.654855
2.140137	1.654937
2.140625	1.654434
2.141113	1.654546
2.141602	1.654807
2.142090	1.654825
2.142578	1.655118
2.143066	1.655002
2.143555	1.654622
2.144043	1.654922
2.144531	1.654754
2.145020	1.654851
2.145508	1.655012
2.145996	1.654881
2.146484	1.654915
2.146973	1.654447
2.147461	1.654690
2.147949	1.654762
2.148437	1.654691
2.148926	1.654593
2.149414	1.654752
2.149902	1.654993
2.150391	1.654756
2.150879	1.654771
2.151367	1.654782
2.151855	1.654826
2.152344	1.654949
2.152832	1.655135
2.153320	1.654846
2.153809	1.654857
2.154297	1.655029
2.154785	1.655255
2.155273	1.655108
2.155762	1.655142
2.156250	1.655122
2.156738	1.655084
2.157227	1.655294
2.157715	1.655220
2.158203	1.655184
2.158691	1.655070
2.159180	1.655257
2.159668	1.655213
2.160156	1.655112
2.160645	1.655123
2.161133	1.654975
2.161621	1.655181
2.162109	1.655136
2.162598	1.654810
2.163086	1.655097
2.163574	1.655142
2.164062	1.655085
2.164551	1.654918
2.165039	1.655178
2.165527	1.655181
2.166016	1.655034
2.166504	1.655137
2.166992	1.655424
2.167480	1.655269
2.167969	1.655373
2.168457	1.655164
2.168945	1.655320
2.169434	1.655407
2.169922	1.655172
2.170410	1.655253
2.170898	1.655233
2.171387	1.655202
2.171875	1.655225
2.172363	1.655053
2.172852	1.655251
2.173340	1.655209
2.173828	1.655186
2.174316	1.655028
2.174805	1.655153
2.175293	1.655124
2.175781	1.655031
2.176270	1.654905
2.176758	1.654931
2.177246	1.654950
2.177734	1.654867
2.178223	1.655074
2.178711	1.655039
2.179199	1.655018
2.179687	1.654903
2.180176	1.654826
2.180664	1.654769
2.181152	1.654961
2.181641	1.655150
2.182129	1.654913
2.182617	1.654779
2.183105	1.654868
2.183594	1.655042
2.184082	1.654917
2.184570	1.654790
2.185059	1.654666
2.185547	1.654691
2.186035	1.655007
2.186523	1.654835
2.187012	1.654827
2.187500	1.654974
2.187988	1.654943
2.188477	1.655015
2.188965	1.654574
2.189453	1.654616
2.189941	1.654811
2.190430	1.654817
2.190918	1.654707
2.191406	1.654780
2.191895	1.654695
2.192383	1.654749
2.192871	1.654871
2.193359	1.654851
2.193848	1.654749
2.194336	1.654680
2.194824	1.654904
2.195312	1.654851
2.195801	1.654826
2.196289	1.654744
2.196777	1.654766
2.197266	1.654704
2.197754	1.654853
2.198242	1.654741
2.198730	1.654621
2.199219	1.654654
2.199707	1.654680
2.200195	1.654861
2.200684	1.654406
2.201172	1.654370
2.201660	1.654938
2.202148	1.654613
2.202637	1.654854
2.203125	1.654672
2.203613	1.654464
2.204102	1.654646
2.204590	1.654827
2.205078	1.654539
2.205566	1.654497
2.206055	1.654671
2.206543	1.654841
2.207031	1.654590
2.207520	1.654962
2.208008	1.654564
2.208496	1.654662
2.208984	1.654514
2.209473	1.654754
2.209961	1.655082
2.210449	1.654844
2.210937	1.654646
2.211426	1.654731
2.211914	1.654611
2.212402	1.654856
2.212891	1.654863
2.213379	1.654662
2.213867	1.654594
2.214355	1.654848
2.214844	1.654660
2.215332	1.654493
2.215820	1.654586
2.216309	1.654683
2.216797	1.654649
2.217285	1.654746
2.217773	1.654715
2.218262	1.654480
2.218750	1.654754
2.219238	1.654798
2.219727	1.654799
2.220215	1.654787
2.220703	1.654683
2.221191	1.654807
2.221680	1.654743
2.222168	1.654985
2.222656	1.654948
2.223145	1.654829
2.223633	1.654644
2.224121	1.655034
2.224609	1.655023
2.225098	1.654638
2.225586	1.654932
2.226074	1.654803
2.226562	1.654747
2.227051	1.654986
2.227539	1.654733
2.228027	1.654488
2.228516	1.654682
2.229004	1.654859
2.229492	1.654734
2.229980	1.654754
2.230469	1.654731
2.230957	1.654558
2.231445	1.654835
2.231934	1.654760
2.232422	1.654777
2.232910	1.654937
2.233398	1.655025
2.233887	1.654875
2.234375	1.654856
2.234863	1.654967
2.235352	1.655033
2.235840	1.655041
2.236328	1.654935
2.236816	1.655148
2.237305	1.655278
2.237793	1.655026
2.238281	1.655254
2.238770	1.655098
2.239258	1.655199
2.239746	1.655156
2.240234	1.655122
2.240723	1.654885
2.241211	1.655039
2.241699	1.655344
2.242187	1.655103
2.242676	1.655029
2.243164	1.655230
2.243652	1.655328
2.244141	1.655336
2.244629	1.655043
2.245117	1.655285
2.245605	1.655342
2.246094	1.655302
2.246582	1.655177
2.247070	1.655213
2.247559	1.655170
2.248047	1.655336
2.248535	1.655582
2.249023	1.655280
2.249512	1.655240
2.250000	1.655114
2.250488	1.655417
2.250977	1.655230
2.251465	1.655478
2.251953	1.655048
2.252441	1.655458
2.252930	1.655525
2.253418	1.655367
2.253906	1.655358
2.254395	1.655130
2.254883	1.655548
2.255371	1.655602
2.255859	1.655378
2.256348	1.655250
2.256836	1.655272
2.257324	1.655384
2.257812	1.655464
2.258301	1.655501
2.258789	1.655362
2.259277	1.655090
2.259766	1.655554
2.260254	1.655459
2.260742	1.655336
2.261230	1.655344
2.261719	1.655270
2.262207	1.655361
2.262695	1.655258
2.263184	1.655342
2.263672	1.655710
2.264160	1.655335
2.264648	1.655305
2.265137	1.655430
2.265625	1.655466
2.266113	1.655099
2.266602	1.655349
2.267090	1.655499
2.267578	1.655364
2.268066	1.655278
2.268555	1.655129
2.269043	1.655477
2.269531	1.655404
2.270020	1.655310
2.270508	1.655084
2.270996	1.654833
2.271484	1.655102
2.271973	1.655392
2.272461	1.655035
2.272949	1.654979
2.273437	1.655136
2.273926	1.655119
2.274414	1.654966
2.274902	1.655058
2.275391	1.655078
2.275879	1.655031
2.276367	1.655079
2.276855	1.655026
2.277344	1.655133
2.277832	1.655031
2.278320	1.655009
2.278809	1.655057
2.279297	1.655010
2.279785	1.654907
2.280273	1.654824
2.280762	1.655000
2.281250	1.654992
2.281738	1.654951
2.282227	1.654801
2.282715	1.654619
2.283203	1.654723
2.283691	1.654763
2.284180	1.654866
2.284668	1.654900
2.285156	1.654695
2.285645	1.654742
2.286133	1.654532
2.286621	1.654637
2.287109	1.654727
2.287598	1.654694
2.288086	1.654862
2.288574	1.654895
2.289062	1.655064
2.289551	1.654778
2.290039	1.654829
2.290527	1.654730
2.291016	1.654776
2.291504	1.654873
2.291992	1.655092
2.292480	1.654696
2.292969	1.654757
2.293457	1.654929
2.293945	1.654898
2.294434	1.655001
2.294922	1.654932
2.295410	1.654856
2.295898	1.654913
2.296387	1.654950
2.296875	1.654805
2.297363	1.654831
2.297852	1.654856
2.298340	1.654784
2.298828	1.654907
2.299316	1.654856
2.299805	1.654510
2.300293	1.654699
2.300781	1.654674
2.301270	1.654682
2.301758	1.654656
2.302246	1.654582
2.302734	1.654773
2.303223	1.654878
2.303711	1.654703
2.304199	1.654821
2.304687	1.654877
2.305176	1.654951
2.305664	1.654973
2.306152	1.654942
2.306641	1.654721
2.307129	1.654937
2.307617	1.655243
2.308105	1.655119
2.308594	1.654955
2.309082	1.654514
2.309570	1.654756
2.310059	1.654858
2.310547	1.654906
2.311035	1.654674
2.311523	1.654807
2.312012	1.654837
2.312500	1.654875
2.312988	1.654899
2.313477	1.654749
2.313965	1.654937
2.314453	1.654858
2.314941	1.654796
2.315430	1.654740
2.315918	1.654743
2.316406	1.654983
2.316895	1.654959
2.317383	1.654938
2.317871	1.654993
2.318359	1.654997
2.318848	1.654842
2.319336	1.654898
2.319824	1.655188
2.320312	1.655277
2.320801	1.654782
2.321289	1.654860
2.321777	1.654899
2.322266	1.655068
2.322754	1.655265
2.323242	1.655049
2.323730	1.654668
2.324219	1.654974
2.324707	1.655020
2.325195	1.654797
2.325684	1.654798
2.326172	1.654851
2.326660	1.654743
2.327148	1.655178
2.327637	1.654998
2.328125	1.655065
2.328613	1.654912
2.329102	1.654717
2.329590	1.654960
2.330078	1.654957
2.330566	1.654838
2.331055	1.654678
2.331543	1.654998
2.332031	1.654909
2.332520	1.654970
2.333008	1.654849
2.333496	1.654644
2.333984	1.654851
2.334473	1.655189
2.334961	1.654989
2.335449	1.654918
2.335937	1.654885
2.336426	1.655015
2.336914	1.654943
2.337402	1.654874
2.337891	1.655047
2.338379	1.655428
2.338867	1.655056
2.339355	1.655009
2.339844	1.654909
2.340332	1.654642
2.340820	1.655144
2.341309	1.655139
2.341797	1.654817
2.342285	1.654771
2.342773	1.655039
2.343262	1.655051
2.343750	1.655054
2.344238	1.655026
2.344727	1.655224
2.345215	1.654963
2.345703	1.654769
2.346191	1.654940
2.346680	1.654871
2.347168	1.655179
2.347656	1.655062
2.348145	1.655086
2.348633	1.655112
2.349121	1.655117
2.349609	1.654921
2.350098	1.654530
2.350586	1.655009
2.351074	1.655391
2.351562	1.654981
2.352051	1.654686
2.352539	1.654735
2.353027	1.654729
2.353516	1.655033
2.354004	1.654967
2.354492	1.654761
2.354980	1.654622
2.355469	1.654851
2.355957	1.654927
2.356445	1.655065
2.356934	1.654769
2.357422	1.655014
2.357910	1.654913
2.358398	1.654724
2.358887	1.655321
2.359375	1.655346
2.359863	1.655067
2.360352	1.655238
2.360840	1.654857
2.361328	1.654752
2.361816	1.655036
2.362305	1.654962
2.362793	1.654904
2.363281	1.654860
2.363770	1.655036
2.364258	1.654736
2.364746	1.654638
2.365234	1.654973
2.365723	1.654935
2.366211	1.654827
2.366699	1.654685
2.367187	1.654712
2.367676	1.655044
2.368164	1.655198
2.368652	1.655086
2.369141	1.654990
2.369629	1.654955
2.370117	1.655128
2.370605	1.655100
2.371094	1.654900
2.371582	1.655050
2.372070	1.655361
2.372559	1.655113
2.373047	1.655209
2.373535	1.655104
2.374023	1.654979
2.374512	1.655219
2.375000	1.655316
2.375488	1.655124
2.375977	1.654935
2.376465	1.654988
2.376953	1.655141
2.377441	1.655209
2.377930	1.655159
2.378418	1.654744
2.378906	1.655224
2.379395	1.655289
2.379883	1.655205
2.380371	1.654972
2.380859	1.654862
2.381348	1.655082
2.381836	1.655124
2.382324	1.655047
2.382812	1.654868
2.383301	1.655115
2.383789	1.655534
2.384277	1.655392
2.384766	1.655305
2.385254	1.655365
2.385742	1.655411
2.386230	1.655410
2.386719	1.655525
2.387207	1.655592
2.387695	1.655642
2.388184	1.655374
2.388672	1.655474
2.389160	1.655760
2.389648	1.655472
2.390137	1.655732
2.390625	1.655436
2.391113	1.655477
2.391602	1.655397
2.392090	1.655051
2.392578	1.655311
2.393066	1.655357
2.393555	1.655244
2.394043	1.655089
2.394531	1.655342
2.395020	1.655187
2.395508	1.655192
2.395996	1.655290
2.396484	1.655414
2.396973	1.655355
2.397461	1.655194
2.397949	1.655235
2.398437	1.655197
2.398926	1.655551
2.399414	1.655589
2.399902	1.655403
2.400391	1.655314
2.400879	1.655372
2.401367	1.655471
2.401855	1.655363
2.402344	1.655263
2.402832	1.655557
2.403320	1.655506
2.403809	1.655257
2.404297	1.655155
2.404785	1.655080
2.405273	1.655250
2.405762	1.655364
2.406250	1.655269
2.406738	1.655192
2.407227	1.655008
2.407715	1.655244
2.408203	1.655408
2.408691	1.655352
2.409180	1.655154
2.409668	1.655139
2.410156	1.655550
2.410645	1.655252
2.411133	1.655233
2.411621	1.655222
2.412109	1.655206
2.412598	1.655459
2.413086	1.655335
2.413574	1.655187
2.414062	1.655335
2.414551	1.655440
2.415039	1.655391
2.415527	1.655454
2.416016	1.655211
2.416504	1.655375
2.416992	1.655298
2.417480	1.655397
2.417969	1.655534
2.418457	1.655415
2.418945	1.655380
2.419434	1.654980
2.419922	1.655369
2.420410	1.655336
2.420898	1.655167
2.421387	1.655134
2.421875	1.655203
2.422363	1.655340
2.422852	1.655306
2.423340	1.655202
2.423828	1.655263
2.424316	1.655342
2.424805	1.655351
2.425293	1.655468
2.425781	1.655249
2.426270	1.655259
2.426758	1.655327
2.427246	1.655435
2.427734	1.655344
2.428223	1.655297
2.428711	1.655151
2.429199	1.655361
2.429687	1.655291
2.430176	1.655258
2.430664	1.655145
2.431152	1.655237
2.431641	1.655245
2.432129	1.655308
2.432617	1.655285
2.433105	1.655105
2.433594	1.655309
2.434082	1.655268
2.434570	1.655270
2.435059	1.655188
2.435547	1.655091
2.436035	1.655208
2.436523	1.655419
2.437012	1.655435
2.437500	1.655296
2.437988	1.655371
2.438477	1.655302
2.438965	1.655248
2.439453	1.655468
2.439941	1.655241
2.440430	1.655309
2.440918	1.655253
2.441406	1.655338
2.441895	1.655274
2.442383	1.655263
2.442871	1.655378
2.443359	1.655328
2.443848	1.655444
2.444336	1.655480
2.444824	1.655369
2.445312	1.655129
2.445801	1.655221
2.446289	1.655683
2.446777	1.655624
2.447266	1.655397
2.447754	1.655341
2.448242	1.654934
2.448730	1.655197
2.449219	1.655378
2.449707	1.655226
2.450195	1.654990
2.450684	1.655094
2.451172	1.655385
2.451660	1.655227
2.452148	1.655163
2.452637	1.655086
2.453125	1.655092
2.453613	1.655274
2.454102	1.655201
2.454590	1.654916
2.455078	1.655027
2.455566	1.655130
2.456055	1.655281
2.456543	1.655033
2.457031	1.654932
2.457520	1.655105
2.458008	1.655025
2.458496	1.655034
2.458984	1.655000
2.459473	1.655188
2.459961	1.654858
2.460449	1.654817
2.460937	1.654714
2.461426	1.654871
2.461914	1.654849
2.462402	1.654888
2.462891	1.654981
2.463379	1.654809
2.463867	1.654823
2.464355	1.654917
2.464844	1.655072
2.465332	1.654951
2.465820	1.654842
2.466309	1.655084
2.466797	1.654893
2.467285	1.654798
2.467773	1.655109
2.468262	1.654880
2.468750	1.654961
2.469238	1.654463
2.469727	1.654566
2.470215	1.654760
2.470703	1.654790
2.471191	1.654940
2.471680	1.654746
2.472168	1.654760
2.472656	1.654676
2.473145	1.654780
2.473633	1.654547
2.474121	1.654476
2.474609	1.654788
2.475098	1.655081
2.475586	1.654596
2.476074	1.654633
2.476562	1.654498
2.477051	1.654777
2.477539	1.654945
2.478027	1.654818
2.478516	1.654379
2.479004	1.654718
2.479492	1.654959
2.479980	1.654854
2.480469	1.655010
2.480957	1.654902
2.481445	1.654982
2.481934	1.654602
2.482422	1.654755
2.482910	1.654958
2.483398	1.654811
2.483887	1.654655
2.484375	1.654902
2.484863	1.654865
2.485352	1.654621
2.485840	1.654523
2.486328	1.654597
2.486816	1.654636
2.487305	1.654829
2.487793	1.654655
2.488281	1.654388
2.488770	1.654523
2.489258	1.654818
2.489746	1.654865
2.490234	1.654862
2.490723	1.654645
2.491211	1.654634
2.491699	1.654765
2.492187	1.654717
2.492676	1.654723
2.493164	1.654853
2.493652	1.654719
2.494141	1.654870
2.494629	1.654897
2.495117	1.654692
2.495605	1.654857
2.496094	1.654925
2.496582	1.654946
2.497070	1.655025
2.497559	1.654580
2.498047	1.654761
2.498535	1.654904
2.499023	1.654845
2.499512	1.654431
2.500000	1.654874
2.500488	1.654849
2.500977	1.654560
2.501465	1.654705
2.501953	1.654608
2.502441	1.654506
2.502930	1.654369
2.503418	1.654551
2.503906	1.654889
2.504395	1.654765
2.504883	1.654633
2.505371	1.654545
2.505859	1.654557
2.506348	1.654673
2.506836	1.654696
2.507324	1.654719
2.507812	1.654528
2.508301	1.655035
2.508789	1.654834
2.509277	1.654996
2.509766	1.654799
2.510254	1.654704
2.510742	1.654702
2.511230	1.654727
2.511719	1.654762
2.512207	1.654574
2.512695	1.654572
2.513184	1.654721
2.513672	1.654905
2.514160	1.654731
2.514648	1.654595
2.515137	1.654442
2.515625	1.654775
2.516113	1.654696
2.516602	1.654743
2.517090	1.654593
2.517578	1.654676
2.518066	1.654692
2.518555	1.654715
2.519043	1.654685
2.519531	1.654704
2.520020	1.654775
2.520508	1.654773
2.520996	1.654694
2.521484	1.654718
2.521973	1.654918
2.522461	1.654869
2.522949	1.654770
2.523437	1.654695
2.523926	1.654536
2.524414	1.654674
2.524902	1.654711
2.525391	1.654856
2.525879	1.654598
2.526367	1.654596
2.526855	1.654749
2.527344	1.654667
2.527832	1.654699
2.528320	1.654598
2.528809	1.654666
2.529297	1.654858
2.529785	1.654738
2.530273	1.654894
2.530762	1.654800
2.531250	1.654572
2.531738	1.654705
2.532227	1.654364
2.532715	1.654680
2.533203	1.654515
2.533691	1.654827
2.534180	1.654644
2.534668	1.654848
2.535156	1.654835
2.535645	1.654816
2.536133	1.654793
2.536621	1.654564
2.537109	1.654868
2.537598	1.655429
2.538086	1.654924
2.538574	1.654520
2.539062	1.654825
2.539551	1.654887
2.540039	1.654878
2.540527	1.654824
2.541016	1.654538
2.541504	1.654774
2.541992	1.654644
2.542480	1.654531
2.542969	1.654738
2.543457	1.654631
2.543945	1.654540
2.544434	1.654663
2.544922	1.654509
2.545410	1.654502
2.545898	1.654589
2.546387	1.654536
2.546875	1.654186
2.547363	1.654766
2.547852	1.654736
2.548340	1.654726
2.548828	1.654727
2.549316	1.654752
2.549805	1.654643
2.550293	1.654411
2.550781	1.654276
2.551270	1.654430
2.551758	1.654636
2.552246	1.654572
2.552734	1.654494
2.553223	1.654563
2.553711	1.654186
2.554199	1.654422
2.554687	1.654415
2.555176	1.654543
2.555664	1.654471
2.556152	1.654552
2.556641	1.654386
2.557129	1.654436
2.557617	1.654682
2.558105	1.654585
2.558594	1.654547
2.559082	1.654608
2.559570	1.654684
2.560059	1.654456
2.560547	1.654574
2.561035	1.654614
2.561523	1.654925
2.562012	1.654740
2.562500	1.654558
2.562988	1.654757
2.563477	1.654788
2.563965	1.654878
2.564453	1.654834
2.564941	1.654788
2.565430	1.654715
2.565918	1.654825
2.566406	1.654722
2.566895	1.654701
2.567383	1.654676
2.567871	1.654449
2.568359	1.654784
2.568848	1.654782
2.569336	1.654766
2.569824	1.654642
2.570312	1.654800
2.570801	1.654746
2.571289	1.654326
2.571777	1.654495
2.572266	1.654811
2.572754	1.654760
2.573242	1.654505
2.573730	1.654877
2.574219	1.654895
2.574707	1.654679
2.575195	1.654841
2.575684	1.654949
2.576172	1.654812
2.576660	1.654901
2.577148	1.654773
2.577637	1.655041
2.578125	1.654844
2.578613	1.654855
2.579102	1.654768
2.579590	1.654625
2.580078	1.654782
2.580566	1.654792
2.581055	1.654875
2.581543	1.654777
2.582031	1.654760
2.582520	1.654881
2.583008	1.654969
2.583496	1.654908
2.583984	1.654470
2.584473	1.654652
2.584961	1.655112
2.585449	1.654861
2.585937	1.654635
2.586426	1.654636
2.586914	1.654759
2.587402	1.654943
2.587891	1.654867
2.588379	1.654389
2.588867	1.654682
2.589355	1.654865
2.589844	1.655029
2.590332	1.654992
2.590820	1.654701
2.591309	1.655119
2.591797	1.654719
2.592285	1.654997
2.592773	1.654887
2.593262	1.654778
2.593750	1.654813
2.594238	1.654896
2.594727	1.654778
2.595215	1.654802
2.595703	1.654739
2.596191	1.654796
2.596680	1.654652
2.597168	1.654951
2.597656	1.655042
2.598145	1.654727
2.598633	1.654439
2.599121	1.654683
2.599609	1.654865
2.600098	1.654766
2.600586	1.654451
2.601074	1.654638
2.601562	1.654821
2.602051	1.654591
2.602539	1.654832
2.603027	1.654689
2.603516	1.654818
2.604004	1.654909
2.604492	1.654909
2.604980	1.654728
2.605469	1.654563
2.605957	1.654669
2.606445	1.654819
2.606934	1.654815
2.607422	1.654913
2.607910	1.654778
2.608398	1.654525
2.608887	1.654842
2.609375	1.654878
2.609863	1.654776
2.610352	1.654262
2.610840	1.654379
2.611328	1.654812
2.611816	1.654673
2.612305	1.654707
2.612793	1.654563
2.613281	1.654654
2.613770	1.654643
2.614258	1.654668
2.614746	1.654572
2.615234	1.654465
2.615723	1.654566
2.616211	1.654673
2.616699	1.654703
2.617187	1.654489
2.617676	1.654527
2.618164	1.654571
2.618652	1.654580
2.619141	1.654769
2.619629	1.654568
2.620117	1.654561
2.620605	1.654391
2.621094	1.654360
2.621582	1.654529
2.622070	1.654748
2.622559	1.654712
2.623047	1.654348
2.623535	1.654677
2.624023	1.654320
2.624512	1.654483
2.625000	1.654496
2.625488	1.654462
2.625977	1.654318
2.626465	1.654495
2.626953	1.654548
2.627441	1.654385
2.627930	1.654388
2.628418	1.654516
2.628906	1.654401
2.629395	1.654599
2.629883	1.654373
2.630371	1.654462
2.630859	1.654474
2.631348	1.654326
2.631836	1.654380
2.632324	1.654120
2.632812	1.654326
2.633301	1.654215
2.633789	1.654491
2.634277	1.654593
2.634766	1.654323
2.635254	1.654373
2.635742	1.654406
2.636230	1.654330
2.636719	1.654125
2.637207	1.654322
2.637695	1.654785
2.638184	1.654448
2.638672	1.654354
2.639160	1.654317
2.639648	1.654162
2.640137	1.654536
2.640625	1.654541
2.641113	1.654239
2.641602	1.654187
2.642090	1.654525
2.642578	1.654607
2.643066	1.654590
2.643555	1.654520
2.644043	1.654487
2.644531	1.654439
2.645020	1.654523
2.645508	1.654378
2.645996	1.654316
2.646484	1.654519
2.646973	1.654523
2.647461	1.654717
2.647949	1.654524
2.648437	1.654305
2.648926	1.654523
2.649414	1.654337
2.649902	1.654607
2.650391	1.654721
2.650879	1.654472
2.651367	1.654372
2.651855	1.654616
2.652344	1.654380
2.652832	1.654560
2.653320	1.654454
2.653809	1.654597
2.654297	1.654545
2.654785	1.654711
2.655273	1.654721
2.655762	1.654674
2.656250	1.654530
2.656738	1.654458
2.657227	1.654660
2.657715	1.654776
2.658203	1.654446
2.658691	1.654602
2.659180	1.654619
2.659668	1.654493
2.660156	1.654622
2.660645	1.654489
2.661133	1.654273
2.661621	1.654403
2.662109	1.654616
2.662598	1.654694
2.663086	1.654568
2.663574	1.654560
2.664062	1.654579
2.664551	1.654475
2.665039	1.654397
2.665527	1.654339
2.666016	1.654743
2.666504	1.654647
2.666992	1.654425
2.667480	1.654362
2.667969	1.654321
2.668457	1.654489
2.668945	1.654606
2.669434	1.654325
2.669922	1.654234
2.670410	1.654569
2.670898	1.654312
2.671387	1.654571
2.671875	1.654607
2.672363	1.654411
2.672852	1.654259
2.673340	1.654121
2.673828	1.654448
2.674316	1.654351
2.674805	1.654342
2.675293	1.654068
2.675781	1.654424
2.676270	1.654230
2.676758	1.654252
2.677246	1.654261
2.677734	1.654120
2.678223	1.654250
2.678711	1.654213
2.679199	1.654010
2.679687	1.653862
2.680176	1.654223
2.680664	1.654380
2.681152	1.654258
2.681641	1.654259
2.682129	1.654215
2.682617	1.654200
2.683105	1.654230
2.683594	1.654291
2.684082	1.654618
2.684570	1.654478
2.685059	1.654183
2.685547	1.654339
2.686035	1.654528
2.686523	1.654369
2.687012	1.654307
2.687500	1.654253
2.687988	1.654067
2.688477	1.654214
2.688965	1.653959
2.689453	1.654262
2.689941	1.654449
2.690430	1.654153
2.690918	1.654077
2.691406	1.653811
2.691895	1.653948
2.692383	1.654191
2.692871	1.654166
2.693359	1.653927
2.693848	1.654157
2.694336	1.654081
2.694824	1.654276
2.695312	1.654433
2.695801	1.654458
2.696289	1.654306
2.696777	1.653887
2.697266	1.654225
2.697754	1.654535
2.698242	1.654443
2.698730	1.654147
2.699219	1.654334
2.699707	1.654579
2.700195	1.654406
2.700684	1.654267
2.701172	1.654126
2.701660	1.654208
2.702148	1.654336
2.702637	1.654368
2.703125	1.654304
2.703613	1.654356
2.704102	1.654318
2.704590	1.654296
2.705078	1.654496
2.705566	1.654152
2.706055	1.654117
2.706543	1.654290
2.707031	1.654334
2.707520	1.654503
2.708008	1.654469
2.708496	1.654320
2.708984	1.654417
2.709473	1.654223
2.709961	1.654544
2.710449	1.654463
2.710937	1.654207
2.711426	1.654087
2.711914	1.654373
2.712402	1.654779
2.712891	1.654607
2.713379	1.654579
2.713867	1.654504
2.714355	1.654577
2.714844	1.654455
2.715332	1.654392
2.715820	1.654845
2.716309	1.654885
2.716797	1.654471
2.717285	1.654646
2.717773	1.654725
2.718262	1.654454
2.718750	1.654603
2.719238	1.654641
2.719727	1.654555
2.720215	1.654577
2.720703	1.654243
2.721191	1.654662
2.721680	1.655169
2.722168	1.654664
2.722656	1.654550
2.723145	1.654463
2.723633	1.654597
2.724121	1.654857
2.724609	1.654761
2.725098	1.654394
2.725586	1.654475
2.726074	1.654687
2.726562	1.654782
2.727051	1.654705
2.727539	1.654702
2.728027	1.654508
2.728516	1.654827
2.729004	1.654762
2.729492	1.654568
2.729980	1.654801
2.730469	1.654306
2.730957	1.654536
2.731445	1.654549
2.731934	1.654450
2.732422	1.654281
2.732910	1.654543
2.733398	1.654469
2.733887	1.654553
2.734375	1.654570
2.734863	1.654574
2.735352	1.654499
2.735840	1.654444
2.736328	1.654615
2.736816	1.654620
2.737305	1.654591
2.737793	1.654649
2.738281	1.654654
2.738770	1.654925
2.739258	1.654801
2.739746	1.654710
2.740234	1.654622
2.740723	1.654769
2.741211	1.654441
2.741699	1.654310
2.742187	1.654676
2.742676	1.654826
2.743164	1.654468
2.743652	1.654509
2.744141	1.654586
2.744629	1.654406
2.745117	1.654516
2.745605	1.654640
2.746094	1.654420
2.746582	1.654414
2.747070	1.654445
2.747559	1.654741
2.748047	1.654714
2.748535	1.654618
2.749023	1.654491
2.749512	1.654701
2.750000	1.654601
2.750488	1.654667
2.750977	1.654741
2.751465	1.654423
2.751953	1.654395
2.752441	1.654739
2.752930	1.654569
2.753418	1.654442
2.753906	1.654433
2.754395	1.654226
2.754883	1.654523
2.755371	1.654641
2.755859	1.654486
2.756348	1.654544
2.756836	1.654227
2.757324	1.654468
2.757812	1.654739
2.758301	1.654602
2.758789	1.654217
2.759277	1.654321
2.759766	1.654364
2.760254	1.654457
2.760742	1.654476
2.761230	1.654220
2.761719	1.654240
2.762207	1.654440
2.762695	1.654324
2.763184	1.654441
2.763672	1.654349
2.764160	1.654217
2.764648	1.654397
2.765137	1.654356
2.765625	1.654301
2.766113	1.654300
2.766602	1.654358
2.767090	1.654363
2.767578	1.654343
2.768066	1.654040
2.768555	1.654264
2.769043	1.654237
2.769531	1.654325
2.770020	1.654082
2.770508	1.654293
2.770996	1.654018
2.771484	1.653998
2.771973	1.654018
2.772461	1.653876
2.772949	1.653830
2.773437	1.653951
2.773926	1.654036
2.774414	1.653828
2.774902	1.654080
2.775391	1.654079
2.775879	1.654168
2.776367	1.654097
2.776855	1.654283
2.777344	1.654276
2.777832	1.654021
2.778320	1.654062
2.778809	1.654309
2.779297	1.654356
2.779785	1.654078
2.780273	1.654141
2.780762	1.653800
2.781250	1.654015
2.781738	1.654366
2.782227	1.654153
2.782715	1.653995
2.783203	1.653782
2.783691	1.653981
2.784180	1.654079
2.784668	1.653977
2.785156	1.653840
2.785645	1.653893
2.786133	1.654230
2.786621	1.654013
2.787109	1.654315
2.787598	1.654026
2.788086	1.654114
2.788574	1.654192
2.789062	1.654080
2.789551	1.653872
2.790039	1.653868
2.790527	1.653935
2.791016	1.653853
2.791504	1.654405
2.791992	1.654135
2.792480	1.654226
2.792969	1.654068
2.793457	1.654027
2.793945	1.654341
2.794434	1.654129
2.794922	1.653866
2.795410	1.653910
2.795898	1.654279
2.796387	1.654185
2.796875	1.654085
2.797363	1.654164
2.797852	1.654292
2.798340	1.654129
2.798828	1.654174
2.799316	1.653941
2.799805	1.654231
2.800293	1.654206
2.800781	1.654076
2.801270	1.653960
2.801758	1.653990
2.802246	1.654044
2.802734	1.654251
2.803223	1.654364
2.803711	1.654195
2.804199	1.653992
2.804687	1.654128
2.805176	1.654284
2.805664	1.654314
2.806152	1.654330
2.806641	1.654215
2.807129	1.654308
2.807617	1.654367
2.808105	1.654561
2.808594	1.654231
2.809082	1.654145
2.809570	1.654179
2.810059	1.653948
2.810547	1.654045
2.811035	1.654103
2.811523	1.653847
2.812012	1.653970
2.812500	1.654258
2.812988	1.653928
2.813477	1.653898
2.813965	1.653739
2.814453	1.653849
2.814941	1.654074
2.815430	1.653968
2.815918	1.653807
2.816406	1.653754
2.816895	1.654060
2.817383	1.654295
2.817871	1.654217
2.818359	1.654065
2.818848	1.654085
2.819336	1.654201
2.819824	1.654138
2.820312	1.654329
2.820801	1.654287
2.821289	1.653885
2.821777	1.654031
2.822266	1.654078
2.822754	1.654107
2.823242	1.654139
2.823730	1.653971
2.824219	1.653947
2.824707	1.654141
2.825195	1.654192
2.825684	1.654181
2.826172	1.654032
2.826660	1.654152
2.827148	1.654071
2.827637	1.654253
2.828125	1.653960
2.828613	1.653846
2.829102	1.654023
2.829590	1.653982
2.830078	1.653857
2.830566	1.654146
2.831055	1.654190
2.831543	1.654109
2.832031	1.654391
2.832520	1.654237
2.833008	1.654090
2.833496	1.653913
2.833984	1.654157
2.834473	1.654373
2.834961	1.654351
2.835449	1.654163
2.835937	1.654017
2.836426	1.654044
2.836914	1.654350
2.837402	1.654407
2.837891	1.654173
2.838379	1.654181
2.838867	1.654450
2.839355	1.654296
2.839844	1.654063
2.840332	1.654162
2.840820	1.653951
2.841309	1.654190
2.841797	1.654021
2.842285	1.653926
2.842773	1.654071
2.843262	1.654047
2.843750	1.654281
2.844238	1.654397
2.844727	1.654024
2.845215	1.653987
2.845703	1.654119
2.846191	1.654326
2.846680	1.654112
2.847168	1.654239
2.847656	1.654083
2.848145	1.654129
2.848633	1.654154
2.849121	1.654138
2.849609	1.654169
2.850098	1.653962
2.850586	1.654106
2.851074	1.654092
2.851562	1.654283
2.852051	1.654143
2.852539	1.654098
2.853027	1.654118
2.853516	1.653962
2.854004	1.654076
2.854492	1.653708
2.854980	1.654139
2.855469	1.654477
2.855957	1.654344
2.856445	1.654185
2.856934	1.653897
2.857422	1.654082
2.857910	1.654172
2.858398	1.654342
2.858887	1.653841
2.859375	1.653953
2.859863	1.654192
2.860352	1.653890
2.860840	1.654103
2.861328	1.654038
2.861816	1.654017
2.862305	1.653714
2.862793	1.653796
2.863281	1.653830
2.863770	1.653842
2.864258	1.653766
2.864746	1.653788
2.865234	1.654085
2.865723	1.653874
2.866211	1.653857
2.866699	1.653754
2.867187	1.654031
2.867676	1.654107
2.868164	1.653807
2.868652	1.653749
2.869141	1.653816
2.869629	1.654037
2.870117	1.654213
2.870605	1.654260
2.871094	1.653866
2.871582	1.653802
2.872070	1.653898
2.872559	1.653883
2.873047	1.654049
2.873535	1.654057
2.874023	1.653947
2.874512	1.653918
2.875000	1.653955
2.875488	1.653728
2.875977	1.654013
2.876465	1.654039
2.876953	1.653727
2.877441	1.653783
2.877930	1.654092
2.878418	1.654082
2.878906	1.653972
2.879395	1.654028
2.879883	1.653749
2.880371	1.653656
2.880859	1.653743
2.881348	1.653714
2.881836	1.654139
2.882324	1.654097
2.882812	1.653963
2.883301	1.653732
2.883789	1.653757
2.884277	1.654067
2.884766	1.654040
2.885254	1.653838
2.885742	1.653760
2.886230	1.653663
2.886719	1.653957
2.887207	1.654353
2.887695	1.654026
2.888184	1.653852
2.888672	1.653779
2.889160	1.654058
2.889648	1.654039
2.890137	1.653999
2.890625	1.653751
2.891113	1.653697
2.891602	1.654019
2.892090	1.653903
2.892578	1.654075
2.893066	1.654023
2.893555	1.653963
2.894043	1.653886
2.894531	1.653686
2.895020	1.653977
2.895508	1.654040
2.895996	1.653864
2.896484	1.653699
2.896973	1.654153
2.897461	1.654071
2.897949	1.653986
2.898437	1.653995
2.898926	1.654228
2.899414	1.654182
2.899902	1.654068
2.900391	1.653945
2.900879	1.653951
2.901367	1.654120
2.901855	1.653991
2.902344	1.654097
2.902832	1.654190
2.903320	1.653888
2.903809	1.654068
2.904297	1.654125
2.904785	1.654045
2.905273	1.654081
2.905762	1.654189
2.906250	1.654232
2.906738	1.653951
2.907227	1.653942
2.907715	1.654048
2.908203	1.654456
2.908691	1.653970
2.909180	1.653910
2.909668	1.654068
2.910156	1.654002
2.910645	1.654224
2.911133	1.654178
2.911621	1.654225
2.912109	1.653902
2.912598	1.654081
2.913086	1.654216
2.913574	1.654377
2.914062	1.654063
2.914551	1.654227
2.915039	1.654101
2.915527	1.654228
2.916016	1.654409
2.916504	1.654112
2.916992	1.654013
2.917480	1.654048
2.917969	1.654460
2.918457	1.654204
2.918945	1.654341
2.919434	1.654286
2.919922	1.654198
2.920410	1.654093
2.920898	1.654068
2.921387	1.654068
2.921875	1.654140
2.922363	1.654065
2.922852	1.654148
2.923340	1.654007
2.923828	1.653869
2.924316	1.654078
2.924805	1.654098
2.925293	1.653965
2.925781	1.654110
2.926270	1.654327
2.926758	1.653895
2.927246	1.654262
2.927734	1.654289
2.928223	1.654150
2.928711	1.654092
2.929199	1.654076
2.929687	1.653948
2.930176	1.653941
2.930664	1.654089
2.931152	1.653803
2.931641	1.654289
2.932129	1.654125
2.932617	1.654126
2.933105	1.654031
2.933594	1.653902
2.934082	1.654159
2.934570	1.653866
2.935059	1.653955
2.935547	1.653795
2.936035	1.653857
2.936523	1.653885
2.937012	1.653924
2.937500	1.653990
2.937988	1.653785
2.938477	1.653847
2.938965	1.653949
2.939453	1.653730
2.939941	1.654077
2.940430	1.653948
2.940918	1.653833
2.941406	1.653686
2.941895	1.653725
2.942383	1.653826
2.942871	1.653872
2.943359	1.653704
2.943848	1.653439
2.944336	1.653833
2.944824	1.653774
2.945312	1.653546
2.945801	1.653736
2.946289	1.653557
2.946777	1.653739
2.947266	1.653901
2.947754	1.653625
2.948242	1.653443
2.948730	1.653465
2.949219	1.653586
2.949707	1.653854
2.950195	1.653609
2.950684	1.653542
2.951172	1.653538
2.951660	1.653716
2.952148	1.653800
2.952637	1.653609
2.953125	1.653483
2.953613	1.653249
2.954102	1.653587
2.954590	1.653947
2.955078	1.653584
2.955566	1.653685
2.956055	1.653639
2.956543	1.653866
2.957031	1.653742
2.957520	1.653604
2.958008	1.653670
2.958496	1.653690
2.958984	1.653699
2.959473	1.653670
2.959961	1.653839
2.960449	1.653829
2.960937	1.653640
2.961426	1.653622
2.961914	1.653659
2.962402	1.653735
2.962891	1.653741
2.963379	1.653772
2.963867	1.653671
2.964355	1.653644
2.964844	1.653644
2.965332	1.653648
2.965820	1.653718
2.966309	1.653867
2.966797	1.653745
2.967285	1.653678
2.967773	1.653890
2.968262	1.653713
2.968750	1.653875
2.969238	1.653606
2.969727	1.653969
2.970215	1.654018
2.970703	1.653657
2.971191	1.653862
2.971680	1.653890
2.972168	1.653794
2.972656	1.653632
2.973145	1.653635
2.973633	1.653609
2.974121	1.653882
2.974609	1.654105
2.975098	1.653882
2.975586	1.653986
2.976074	1.653844
2.976562	1.653855
2.977051	1.653594
2.977539	1.653707
2.978027	1.654254
2.978516	1.654197
2.979004	1.653932
2.979492	1.653946
2.979980	1.653780
2.980469	1.653891
2.980957	1.654128
2.981445	1.654031
2.981934	1.653693
2.982422	1.654001
2.982910	1.654098
2.983398	1.654127
2.983887	1.654134
2.984375	1.654012
2.984863	1.653913
2.985352	1.654183
2.985840	1.654197
2.986328	1.654076
2.986816	1.653913
2.987305	1.653868
2.987793	1.654217
2.988281	1.654635
2.988770	1.654154
2.989258	1.653754
2.989746	1.654082
2.990234	1.654251
2.990723	1.654164
2.991211	1.654262
2.991699	1.653943
2.992187	1.653973
2.992676	1.654107
2.993164	1.654082
2.993652	1.654265
2.994141	1.654128
2.994629	1.654433
2.995117	1.654336
2.995605	1.653937
2.996094	1.654265
2.996582	1.654311
2.997070	1.654347
2.997559	1.654352
2.998047	1.654432
2.998535	1.654281
2.999023	1.654095
2.999512	1.654156
3.000000	1.654183
3.000488	1.654142
3.000977	1.654248
3.001465	1.654156
3.001953	1.654068
3.002441	1.654103
3.002930	1.654080
3.003418	1.654169
3.003906	1.654169
3.004395	1.654206
3.004883	1.654209
3.005371	1.654172
3.005859	1.654148
3.006348	1.654301
3.006836	1.654239
3.007324	1.654319
3.007812	1.654269
3.008301	1.654388
3.008789	1.654281
3.009277	1.654285
3.009766	1.654367
3.010254	1.654313
3.010742	1.654305
3.011230	1.654399
3.011719	1.654101
3.012207	1.654327
3.012695	1.654117
3.013184	1.654262
3.013672	1.654381
3.014160	1.654303
3.014648	1.654505
3.015137	1.654246
3.015625	1.654246
3.016113	1.654427
3.016602	1.654555
3.017090	1.654421
3.017578	1.654148
3.018066	1.654478
3.018555	1.654331
3.019043	1.654541
3.019531	1.654564
3.020020	1.654282
3.020508	1.654240
3.020996	1.654561
3.021484	1.654311
3.021973	1.654549
3.022461	1.654326
3.022949	1.654282
3.023437	1.654468
3.023926	1.654502
3.024414	1.654516
3.024902	1.654441
3.025391	1.654611
3.025879	1.654700
3.026367	1.654627
3.026855	1.654657
3.027344	1.654575
3.027832	1.654599
3.028320	1.654339
3.028809	1.654693
3.029297	1.654727
3.029785	1.654484
3.030273	1.654380
3.030762	1.654460
3.031250	1.654336
3.031738	1.654450
3.032227	1.654406
3.032715	1.654092
3.033203	1.654309
3.033691	1.654153
3.034180	1.654266
3.034668	1.654172
3.035156	1.654355
3.035645	1.654366
3.036133	1.654477
3.036621	1.654452
3.037109	1.654303
3.037598	1.654484
3.038086	1.654214
3.038574	1.654607
3.039062	1.654372
3.039551	1.654144
3.040039	1.654080
3.040527	1.654142
3.041016	1.654373
3.041504	1.654320
3.041992	1.654178
3.042480	1.654004
3.042969	1.654153
3.043457	1.654265
3.043945	1.653965
3.044434	1.654057
3.044922	1.654170
3.045410	1.654179
3.045898	1.654139
3.046387	1.653939
3.046875	1.653981
3.047363	1.654244
3.047852	1.654232
3.048340	1.653988
3.048828	1.653982
3.049316	1.653721
3.049805	1.653794
3.050293	1.654069
3.050781	1.653948
3.051270	1.653714
3.051758	1.654068
3.052246	1.654010
3.052734	1.654065
3.053223	1.654084
3.053711	1.653835
3.054199	1.654294
3.054687	1.653874
3.055176	1.653866
3.055664	1.653844
3.056152	1.653974
3.056641	1.654080
3.057129	1.654121
3.057617	1.654207
3.058105	1.654062
3.058594	1.654126
3.059082	1.653976
3.059570	1.654045
3.060059	1.654407
3.060547	1.654355
3.061035	1.653911
3.061523	1.654006
3.062012	1.654123
3.062500	1.654272
3.062988	1.654301
3.063477	1.654256
3.063965	1.654250
3.064453	1.654149
3.064941	1.654239
3.065430	1.654303
3.065918	1.654290
3.066406	1.654126
3.066895	1.654319
3.067383	1.654447
3.067871	1.654295
3.068359	1.654563
3.068848	1.654418
3.069336	1.654394
3.069824	1.654093
3.070312	1.653973
3.070801	1.654252
3.071289	1.654402
3.071777	1.654228
3.072266	1.654196
3.072754	1.654607
3.073242	1.654284
3.073730	1.654525
3.074219	1.654494
3.074707	1.654477
3.075195	1.654389
3.075684	1.654248
3.076172	1.654317
3.076660	1.654336
3.077148	1.654669
3.077637	1.654802
3.078125	1.654432
3.078613	1.654614
3.079102	1.654536
3.079590	1.654597
3.080078	1.654236
3.080566	1.654303
3.081055	1.654724
3.081543	1.654806
3.082031	1.654540
3.082520	1.654458
3.083008	1.654054
3.083496	1.654334
3.083984	1.654738
3.084473	1.654327
3.084961	1.654211
3.085449	1.654446
3.085937	1.654584
3.086426	1.654348
3.086914	1.654476
3.087402	1.654522
3.087891	1.654381
3.088379	1.654589
3.088867	1.654533
3.089355	1.654392
3.089844	1.654441
3.090332	1.654455
3.090820	1.654652
3.091309	1.654748
3.091797	1.654475
3.092285	1.654422
3.092773	1.654601
3.093262	1.654713
3.093750	1.654890
3.094238	1.654815
3.094727	1.654409
3.095215	1.654585
3.095703	1.654735
3.096191	1.654762
3.096680	1.654964
3.097168	1.654691
3.097656	1.654799
3.098145	1.654724
3.098633	1.654425
3.099121	1.654842
3.099609	1.654815
3.100098	1.654705
3.100586	1.654636
3.101074	1.654772
3.101562	1.654594
3.102051	1.654391
3.102539	1.654635
3.103027	1.654652
3.103516	1.654825
3.104004	1.654815
3.104492	1.654691
3.104980	1.654649
3.105469	1.654766
3.105957	1.654863
3.106445	1.654878
3.106934	1.654776
3.107422	1.654900
3.107910	1.654824
3.108398	1.654526
3.108887	1.654838
3.109375	1.654701
3.109863	1.654890
3.110352	1.654689
3.110840	1.654676
3.111328	1.654884
3.111816	1.654497
3.112305	1.654663
3.112793	1.654846
3.113281	1.654560
3.113770	1.654691
3.114258	1.654527
3.114746	1.654608
3.115234	1.654843
3.115723	1.654603
3.116211	1.654612
3.116699	1.654630
3.117187	1.654788
3.117676	1.654792
3.118164	1.654821
3.118652	1.654751
3.119141	1.654843
3.119629	1.654652
3.120117	1.654567
3.120605	1.654626
3.121094	1.654324
3.121582	1.654661
3.122070	1.654577
3.122559	1.654541
3.123047	1.654271
3.123535	1.654553
3.124023	1.654848
3.124512	1.654715
3.125000	1.654592
3.125488	1.654400
3.125977	1.654485
3.126465	1.654494
3.126953	1.654582
3.127441	1.654942
3.127930	1.654812
3.128418	1.654503
3.128906	1.654525
3.129395	1.654455
3.129883	1.654684
3.130371	1.654627
3.130859	1.654435
3.131348	1.654359
3.131836	1.654872
3.132324	1.654649
3.132812	1.654497
3.133301	1.654425
3.133789	1.654552
3.134277	1.654524
3.134766	1.654527
3.135254	1.654389
3.135742	1.654404
3.136230	1.654581
3.136719	1.654547
3.137207	1.654723
3.137695	1.654682
3.138184	1.654342
3.138672	1.654652
3.139160	1.654446
3.139648	1.654354
3.140137	1.654585
3.140625	1.654460
3.141113	1.654492
3.141602	1.654505
3.142090	1.654398
3.142578	1.654556
3.143066	1.654693
3.143555	1.654468
3.144043	1.654657
3.144531	1.654546
3.145020	1.654512
3.145508	1.654587
3.145996	1.654769
3.146484	1.654604
3.146973	1.654442
3.147461	1.654660
3.147949	1.654497
3.148437	1.654798
3.148926	1.654683
3.149414	1.654608
3.149902	1.654380
3.150391	1.654157
3.150879	1.654520
3.151367	1.654638
3.151855	1.654450
3.152344	1.654098
3.152832	1.654439
3.153320	1.654449
3.153809	1.654267
3.154297	1.654351
3.154785	1.654185
3.155273	1.654486
3.155762	1.654604
3.156250	1.654361
3.156738	1.654358
3.157227	1.654408
3.157715	1.654783
3.158203	1.654639
3.158691	1.654561
3.159180	1.654568
3.159668	1.654565
3.160156	1.654612
3.160645	1.654762
3.161133	1.654607
3.161621	1.654601
3.162109	1.654153
3.162598	1.654540
3.163086	1.654585
3.163574	1.654359
3.164062	1.654574
3.164551	1.654500
3.165039	1.654582
3.165527	1.654279
3.166016	1.654123
3.166504	1.654430
3.166992	1.654394
3.167480	1.654474
3.167969	1.654495
3.168457	1.654415
3.168945	1.654269
3.169434	1.654273
3.169922	1.654453
3.170410	1.654492
3.170898	1.654414
3.171387	1.654536
3.171875	1.654400
3.172363	1.654452
3.172852	1.654371
3.173340	1.654592
3.173828	1.654397
3.174316	1.654271
3.174805	1.654498
3.175293	1.654345
3.175781	1.654654
3.176270	1.654293
3.176758	1.654449
3.177246	1.654297
3.177734	1.654164
3.178223	1.654278
3.178711	1.654189
3.179199	1.654455
3.179687	1.654602
3.180176	1.654425
3.180664	1.654308
3.181152	1.654181
3.181641	1.654133
3.182129	1.654461
3.182617	1.654396
3.183105	1.654148
3.183594	1.654248
3.184082	1.654403
3.184570	1.654428
3.185059	1.654491
3.185547	1.654403
3.186035	1.654300
3.186523	1.654320
3.187012	1.654513
3.187500	1.654675
3.187988	1.654657
3.188477	1.654533
3.188965	1.654635
3.189453	1.654160
3.189941	1.654511
3.190430	1.654643
3.190918	1.654432
3.191406	1.654245
3.191895	1.654740
3.192383	1.654499
3.192871	1.654354
3.193359	1.654341
3.193848	1.654502
3.194336	1.654511
3.194824	1.654543
3.195312	1.654417
3.195801	1.654266
3.196289	1.654518
3.196777	1.654627
3.197266	1.654560
3.197754	1.654422
3.198242	1.654509
3.198730	1.654740
3.199219	1.654625
3.199707	1.654654
3.200195	1.654892
3.200684	1.654816
3.201172	1.654765
3.201660	1.654762
3.202148	1.654595
3.202637	1.654637
3.203125	1.654788
3.203613	1.654741
3.204102	1.654502
3.204590	1.654787
3.205078	1.654563
3.205566	1.654586
3.206055	1.654657
3.206543	1.654389
3.207031	1.654398
3.207520	1.654813
3.208008	1.654660
3.208496	1.654832
3.208984	1.654706
3.209473	1.654449
3.209961	1.654594
3.210449	1.654751
3.210937	1.654458
3.211426	1.654439
3.211914	1.654605
3.212402	1.654638
3.212891	1.654806
3.213379	1.654730
3.213867	1.654762
3.214355	1.654485
3.214844	1.654480
3.215332	1.654654
3.215820	1.654791
3.216309	1.654689
3.216797	1.654585
3.217285	1.654640
3.217773	1.654868
3.218262	1.654691
3.218750	1.654591
3.219238	1.654569
3.219727	1.654611
3.220215	1.654543
3.220703	1.654335
3.221191	1.654091
3.221680	1.654238
3.222168	1.654466
3.222656	1.654601
3.223145	1.654638
3.223633	1.654342
3.224121	1.654377
3.224609	1.654433
3.225098	1.654579
3.225586	1.654685
3.226074	1.654672
3.226562	1.654522
3.227051	1.654589
3.227539	1.654775
3.228027	1.654690
3.228516	1.654698
3.229004	1.654752
3.229492	1.654543
3.229980	1.654732
3.230469	1.654175
3.230957	1.654642
3.231445	1.654571
3.231934	1.654690
3.232422	1.654524
3.232910	1.654722
3.233398	1.654621
3.233887	1.654507
3.234375	1.654620
3.234863	1.654427
3.235352	1.654557
3.235840	1.654749
3.236328	1.654571
3.236816	1.654704
3.237305	1.654744
3.237793	1.654645
3.238281	1.654824
3.238770	1.654925
3.239258	1.654807
3.239746	1.654643
3.240234	1.654886
3.240723	1.654823
3.241211	1.654511
3.241699	1.654899
3.242187	1.654874
3.242676	1.654813
3.243164	1.654483
3.243652	1.654597
3.244141	1.655054
3.244629	1.654842
3.245117	1.654740
3.245605	1.654552
3.246094	1.654476
3.246582	1.654744
3.247070	1.654752
3.247559	1.654594
3.248047	1.654483
3.248535	1.654773
3.249023	1.654665
3.249512	1.654694
3.250000	1.654542
3.250488	1.654392
3.250977	1.654799
3.251465	1.655074
3.251953	1.654550
3.252441	1.654598
3.252930	1.654835
3.253418	1.654859
3.253906	1.654947
3.254395	1.654936
3.254883	1.654810
3.255371	1.654884
3.255859	1.654751
3.256348	1.654928
3.256836	1.654968
3.257324	1.655032
3.257812	1.654918
3.258301	1.654871
3.258789	1.654906
3.259277	1.654843
3.259766	1.654759
3.260254	1.654573
3.260742	1.654564
3.261230	1.654796
3.261719	1.654651
3.262207	1.654670
3.262695	1.654483
3.263184	1.654567
3.263672	1.654830
3.264160	1.654740
3.264648	1.654520
3.265137	1.654621
3.265625	1.654804
3.266113	1.654870
3.266602	1.654843
3.267090	1.654779
3.267578	1.654850
3.268066	1.654905
3.268555	1.655115
3.269043	1.654711
3.269531	1.654853
3.270020	1.654821
3.270508	1.654741
3.270996	1.654635
3.271484	1.654649
3.271973	1.654558
3.272461	1.654647
3.272949	1.654779
3.273437	1.654642
3.273926	1.654692
3.274414	1.654428
3.274902	1.654693
3.275391	1.654635
3.275879	1.654344
3.276367	1.654554
3.276855	1.654731
3.277344	1.654806
3.277832	1.654755
3.278320	1.654569
3.278809	1.654437
3.279297	1.654657
3.279785	1.654798
3.280273	1.654682
3.280762	1.654540
3.281250	1.654607
3.281738	1.654648
3.282227	1.654571
3.282715	1.654683
3.283203	1.654341
3.283691	1.654593
3.284180	1.654604
3.284668	1.654400
3.285156	1.654401
3.285645	1.654239
3.286133	1.654242
3.286621	1.654510
3.287109	1.654711
3.287598	1.654223
3.288086	1.654333
3.288574	1.654301
3.289062	1.654451
3.289551	1.654516
3.290039	1.654528
3.290527	1.654064
3.291016	1.654235
3.291504	1.654303
3.291992	1.654415
3.292480	1.654436
3.292969	1.654359
3.293457	1.654188
3.293945	1.654432
3.294434	1.654475
3.294922	1.654517
3.295410	1.654206
3.295898	1.654114
3.296387	1.654509
3.296875	1.654452
3.297363	1.654391
3.297852	1.654245
3.298340	1.654258
3.298828	1.654453
3.299316	1.654421
3.299805	1.654367
3.300293	1.654219
3.300781	1.654163
3.301270	1.654397
3.301758	1.654445
3.302246	1.654236
3.302734	1.654266
3.303223	1.654164
3.303711	1.654337
3.304199	1.654458
3.304687	1.654369
3.305176	1.654237
3.305664	1.654066
3.306152	1.654156
3.306641	1.654669
3.307129	1.654664
3.307617	1.654013
3.308105	1.654436
3.308594	1.654386
3.309082	1.654541
3.309570	1.654353
3.310059	1.654211
3.310547	1.653940
3.311035	1.654222
3.311523	1.654294
3.312012	1.654295
3.312500	1.654275
3.312988	1.654256
3.313477	1.654402
3.313965	1.653987
3.314453	1.653942
3.314941	1.653984
3.315430	1.654183
3.315918	1.654298
3.316406	1.654337
3.316895	1.654209
3.317383	1.654173
3.317871	1.654356
3.318359	1.654361
3.318848	1.654326
3.319336	1.654381
3.319824	1.654406
3.320312	1.654229
3.320801	1.654344
3.321289	1.654342
3.321777	1.654208
3.322266	1.654802
3.322754	1.654566
3.323242	1.654397
3.323730	1.654369
3.324219	1.653839
3.324707	1.654290
3.325195	1.654395
3.325684	1.654338
3.326172	1.654072
3.326660	1.654411
3.327148	1.654132
3.327637	1.654221
3.328125	1.654099
3.328613	1.654112
3.329102	1.654254
3.329590	1.654362
3.330078	1.654416
3.330566	1.654267
3.331055	1.654314
3.331543	1.654264
3.332031	1.654492
3.332520	1.654478
3.333008	1.654690
3.333496	1.654526
3.333984	1.654463
3.334473	1.654588
3.334961	1.654665
3.335449	1.654642
3.335937	1.654233
3.336426	1.654347
3.336914	1.654622
3.337402	1.654574
3.337891	1.654569
3.338379	1.654354
3.338867	1.654507
3.339355	1.654344
3.339844	1.654469
3.340332	1.654229
3.340820	1.654210
3.341309	1.654357
3.341797	1.654292
3.342285	1.654413
3.342773	1.654358
3.343262	1.654348
3.343750	1.654290
3.344238	1.654476
3.344727	1.654621
3.345215	1.654641
3.345703	1.654437
3.346191	1.654417
3.346680	1.654546
3.347168	1.654752
3.347656	1.654801
3.348145	1.654593
3.348633	1.654618
3.349121	1.654659
3.349609	1.654778
3.350098	1.654816
3.350586	1.654751
3.351074	1.654551
3.351562	1.654403
3.352051	1.654803
3.352539	1.654641
3.353027	1.654439
3.353516	1.654704
3.354004	1.654445
3.354492	1.654521
3.354980	1.654410
3.355469	1.654225
3.355957	1.654064
3.356445	1.654416
3.356934	1.654777
3.357422	1.654558
3.357910	1.654521
3.358398	1.654251
3.358887	1.654296
3.359375	1.654454
3.359863	1.654226
3.360352	1.654529
3.360840	1.654596
3.361328	1.654345
3.361816	1.654591
3.362305	1.654090
3.362793	1.654110
3.363281	1.654545
3.363770	1.654545
3.364258	1.654333
3.364746	1.654178
3.365234	1.654245
3.365723	1.654104
3.366211	1.654244
3.366699	1.654359
3.367187	1.654298
3.367676	1.654215
3.368164	1.654273
3.368652	1.654400
3.369141	1.654212
3.369629	1.653865
3.370117	1.654142
3.370605	1.654419
3.371094	1.654306
3.371582	1.653934
3.372070	1.653993
3.372559	1.653730
3.373047	1.654034
3.373535	1.654289
3.374023	1.654032
3.374512	1.653902
3.375000	1.654132
3.375488	1.654116
3.375977	1.654119
3.376465	1.654006
3.376953	1.654312
3.377441	1.654083
3.377930	1.654219
3.378418	1.654084
3.378906	1.654060
3.379395	1.654215
3.379883	1.654272
3.380371	1.654193
3.380859	1.654173
3.381348	1.654129
3.381836	1.654078
3.382324	1.653852
3.382812	1.654129
3.383301	1.654394
3.383789	1.654232
3.384277	1.654054
3.384766	1.653870
3.385254	1.653834
3.385742	1.654186
3.386230	1.654138
3.386719	1.653937
3.387207	1.653941
3.387695	1.654358
3.388184	1.654109
3.388672	1.653861
3.389160	1.653938
3.389648	1.653979
3.390137	1.654015
3.390625	1.654178
3.391113	1.653898
3.391602	1.653945
3.392090	1.653939
3.392578	1.654057
3.393066	1.654301
3.393555	1.654092
3.394043	1.654169
3.394531	1.654137
3.395020	1.654168
3.395508	1.654202
3.395996	1.654121
3.396484	1.654209
3.396973	1.654135
3.397461	1.654248
3.397949	1.654203
3.398437	1.654118
3.398926	1.654264
3.399414	1.654164
3.399902	1.654169
3.400391	1.654049
3.400879	1.653924
3.401367	1.654131
3.401855	1.654297
3.402344	1.654083
3.402832	1.654220
3.403320	1.654427
3.403809	1.654216
3.404297	1.654270
3.404785	1.654292
3.405273	1.654440
3.405762	1.654294
3.406250	1.653839
3.406738	1.654323
3.407227	1.654246
3.407715	1.654405
3.408203	1.654165
3.408691	1.654308
3.409180	1.654316
3.409668	1.654481
3.410156	1.654301
3.410645	1.653956
3.411133	1.654225
3.411621	1.654460
3.412109	1.654416
3.412598	1.654201
3.413086	1.654278
3.413574	1.654240
3.414062	1.654538
3.414551	1.654472
3.415039	1.654655
3.415527	1.654500
3.416016	1.654558
3.416504	1.654871
3.416992	1.654842
3.417480	1.654896
3.417969	1.654745
3.418457	1.654703
3.418945	1.654576
3.419434	1.654903
3.419922	1.655178
3.420410	1.654613
3.420898	1.654605
3.421387	1.654723
3.421875	1.654654
3.422363	1.654772
3.422852	1.654724
3.423340	1.654579
3.423828	1.654763
3.424316	1.654852
3.424805	1.654611
3.425293	1.654865
3.425781	1.654812
3.426270	1.655064
3.426758	1.654702
3.427246	1.654702
3.427734	1.654982
3.428223	1.654892
3.428711	1.654715
3.429199	1.654664
3.429687	1.655007
3.430176	1.654795
3.430664	1.655157
3.431152	1.655025
3.431641	1.655161
3.432129	1.654823
3.432617	1.654446
3.433105	1.654871
3.433594	1.654925
3.434082	1.655207
3.434570	1.654904
3.435059	1.654974
3.435547	1.655106
3.436035	1.655115
3.436523	1.654912
3.437012	1.654594
3.437500	1.655043
3.437988	1.655291
3.438477	1.655014
3.438965	1.654660
3.439453	1.654837
3.439941	1.655017
3.440430	1.654982
3.440918	1.654859
3.441406	1.654931
3.441895	1.654662
3.442383	1.654895
3.442871	1.654838
3.443359	1.655270
3.443848	1.655143
3.444336	1.654784
3.444824	1.654856
3.445312	1.655003
3.445801	1.655028
3.446289	1.654937
3.446777	1.654686
3.447266	1.654741
3.447754	1.654937
3.448242	1.654993
3.448730	1.654993
3.449219	1.654795
3.449707	1.654714
3.450195	1.654779
3.450684	1.654920
3.451172	1.654421
3.451660	1.654729
3.452148	1.654596
3.452637	1.654579
3.453125	1.654777
3.453613	1.654701
3.454102	1.654509
3.454590	1.654641
3.455078	1.654743
3.455566	1.654608
3.456055	1.654574
3.456543	1.654738
3.457031	1.654500
3.457520	1.654791
3.458008	1.654857
3.458496	1.654783
3.458984	1.654646
3.459473	1.654854
3.459961	1.654811
3.460449	1.654683
3.460937	1.654615
3.461426	1.654710
3.461914	1.654737
3.462402	1.654581
3.462891	1.654657
3.463379	1.654663
3.463867	1.654455
3.464355	1.654906
3.464844	1.654773
3.465332	1.654662
3.465820	1.654515
3.466309	1.654602
3.466797	1.654561
3.467285	1.654604
3.467773	1.654759
3.468262	1.654539
3.468750	1.654690
3.469238	1.654694
3.469727	1.654838
3.470215	1.654665
3.470703	1.654297
3.471191	1.654540
3.471680	1.654987
3.472168	1.654806
3.472656	1.654593
3.473145	1.654427
3.473633	1.654455
3.474121	1.654658
3.474609	1.654746
3.475098	1.654315
3.475586	1.654163
3.476074	1.654543
3.476562	1.654558
3.477051	1.654476
3.477539	1.654408
3.478027	1.654440
3.478516	1.654409
3.479004	1.654162
3.479492	1.654223
3.479980	1.654270
3.480469	1.654372
3.480957	1.654334
3.481445	1.654600
3.481934	1.654601
3.482422	1.654191
3.482910	1.654325
3.483398	1.654207
3.483887	1.654368
3.484375	1.654593
3.484863	1.654508
3.485352	1.654148
3.485840	1.654439
3.486328	1.654480
3.486816	1.654475
3.487305	1.654347
3.487793	1.654481
3.488281	1.654383
3.488770	1.654305
3.489258	1.654254
3.489746	1.654477
3.490234	1.654301
3.490723	1.654052
3.491211	1.654272
3.491699	1.654268
3.492187	1.654076
3.492676	1.654086
3.493164	1.654225
3.493652	1.654456
3.494141	1.654125
3.494629	1.653743
3.495117	1.654150
3.495605	1.654204
3.496094	1.654502
3.496582	1.654269
3.497070	1.654181
3.497559	1.654380
3.498047	1.654546
3.498535	1.654569
3.499023	1.654439
3.499512	1.654528
3.500000	1.654624
3.500488	1.654605
3.500977	1.654515
3.501465	1.654510
3.501953	1.654250
3.502441	1.654694
3.502930	1.654749
3.503418	1.654392
3.503906	1.654311
3.504395	1.654366
3.504883	1.654530
3.505371	1.654613
3.505859	1.654458
3.506348	1.654071
3.506836	1.654471
3.507324	1.654583
3.507812	1.654740
3.508301	1.654669
3.508789	1.654668
3.509277	1.654675
3.509766	1.654455
3.510254	1.654506
3.510742	1.654824
3.511230	1.654687
3.511719	1.654610
3.512207	1.654768
3.512695	1.654963
3.513184	1.654659
3.513672	1.654802
3.514160	1.654702
3.514648	1.655000
3.515137	1.654839
3.515625	1.654763
3.516113	1.654663
3.516602	1.654655
3.517090	1.655167
3.517578	1.655031
3.518066	1.654904
3.518555	1.654795
3.519043	1.654695
3.519531	1.654930
3.520020	1.654754
3.520508	1.654819
3.520996	1.654607
3.521484	1.654725
3.521973	1.654987
3.522461	1.654859
3.522949	1.654827
3.523437	1.654583
3.523926	1.654917
3.524414	1.654965
3.524902	1.654971
3.525391	1.654857
3.525879	1.654978
3.526367	1.655131
3.526855	1.655033
3.527344	1.655217
3.527832	1.655089
3.528320	1.654979
3.528809	1.655182
3.529297	1.655134
3.529785	1.655097
3.530273	1.655100
3.530762	1.654866
3.531250	1.655104
3.531738	1.655232
3.532227	1.654993
3.532715	1.654906
3.533203	1.654931
3.533691	1.654990
3.534180	1.655006
3.534668	1.654881
3.535156	1.654825
3.535645	1.654864
3.536133	1.655011
3.536621	1.655125
3.537109	1.654982
3.537598	1.654856
3.538086	1.654930
3.538574	1.655100
3.539062	1.655222
3.539551	1.655161
3.540039	1.655150
3.540527	1.654891
3.541016	1.654786
3.541504	1.655083
3.541992	1.655020
3.542480	1.654940
3.542969	1.655102
3.543457	1.655090
3.543945	1.655049
3.544434	1.654694
3.544922	1.654746
3.545410	1.654793
3.545898	1.654938
3.546387	1.654856
3.546875	1.654789
3.547363	1.654808
3.547852	1.654804
3.548340	1.654956
3.548828	1.654878
3.549316	1.654819
3.549805	1.654834
3.550293	1.654970
3.550781	1.654617
3.551270	1.654831
3.551758	1.654744
3.552246	1.655022
3.552734	1.654975
3.553223	1.654923
3.553711	1.654918
3.554199	1.654795
3.554687	1.654817
3.555176	1.654968
3.555664	1.655062
3.556152	1.654765
3.556641	1.654776
3.557129	1.654674
3.557617	1.654790
3.558105	1.654863
3.558594	1.654628
3.559082	1.654436
3.559570	1.654505
3.560059	1.654579
3.560547	1.654677
3.561035	1.654517
3.561523	1.654372
3.562012	1.654343
3.562500	1.654882
3.562988	1.654742
3.563477	1.654811
3.563965	1.654624
3.564453	1.654702
3.564941	1.654912
3.565430	1.654760
3.565918	1.654759
3.566406	1.654483
3.566895	1.654901
3.567383	1.655188
3.567871	1.654779
3.568359	1.654678
3.568848	1.654671
3.569336	1.654743
3.569824	1.654716
3.570312	1.654732
3.570801	1.655057
3.571289	1.654920
3.571777	1.654698
3.572266	1.654704
3.572754	1.654580
3.573242	1.654826
3.573730	1.654821
3.574219	1.654655
3.574707	1.654711
3.575195	1.654996
3.575684	1.654800
3.576172	1.654734
3.576660	1.654852
3.577148	1.654895
3.577637	1.654934
3.578125	1.654812
3.578613	1.654847
3.579102	1.655130
3.579590	1.654950
3.580078	1.654930
3.580566	1.654860
3.581055	1.654844
3.581543	1.654906
3.582031	1.654816
3.582520	1.655072
3.583008	1.654940
3.583496	1.655025
3.583984	1.655056
3.584473	1.654973
3.584961	1.654953
3.585449	1.654917
3.585937	1.655005
3.586426	1.655086
3.586914	1.655143
3.587402	1.655133
3.587891	1.654966
3.588379	1.654898
3.588867	1.655249
3.589355	1.655266
3.589844	1.654985
3.590332	1.655048
3.590820	1.655450
3.591309	1.655228
3.591797	1.655385
3.592285	1.655259
3.592773	1.655317
3.593262	1.655267
3.593750	1.655188
3.594238	1.655261
3.594727	1.655109
3.595215	1.655261
3.595703	1.655350
3.596191	1.655344
3.596680	1.655249
3.597168	1.655325
3.597656	1.655223
3.598145	1.655178
3.598633	1.655407
3.599121	1.655682
3.599609	1.655397
3.600098	1.655240
3.600586	1.655408
3.601074	1.655213
3.601562	1.655560
3.602051	1.655570
3.602539	1.655438
3.603027	1.655579
3.603516	1.655088
3.604004	1.655226
3.604492	1.655473
3.604980	1.655455
3.605469	1.655550
3.605957	1.655580
3.606445	1.655764
3.606934	1.655550
3.607422	1.655593
3.607910	1.655636
3.608398	1.655634
3.608887	1.655629
3.609375	1.655471
3.609863	1.655306
3.610352	1.655649
3.610840	1.655811
3.611328	1.655654
3.611816	1.655571
3.612305	1.655624
3.612793	1.655505
3.613281	1.655536
3.613770	1.655511
3.614258	1.655384
3.614746	1.655429
3.615234	1.655629
3.615723	1.655731
3.616211	1.655297
3.616699	1.655239
3.617187	1.655526
3.617676	1.655569
3.618164	1.655490
3.618652	1.655454
3.619141	1.655684
3.619629	1.655433
3.620117	1.655566
3.620605	1.655535
3.621094	1.655364
3.621582	1.655519
3.622070	1.655621
3.622559	1.655551
3.623047	1.655446
3.623535	1.655306
3.624023	1.655457
3.624512	1.655448
3.625000	1.655471
3.625488	1.655532
3.625977	1.655308
3.626465	1.655235
3.626953	1.655489
3.627441	1.655675
3.627930	1.655380
3.628418	1.655215
3.628906	1.655108
3.629395	1.655181
3.629883	1.655431
3.630371	1.655170
3.630859	1.655021
3.631348	1.655023
3.631836	1.655223
3.632324	1.655087
3.632812	1.654909
3.633301	1.655082
3.633789	1.655002
3.634277	1.655213
3.634766	1.655181
3.635254	1.655166
3.635742	1.654852
3.636230	1.654960
3.636719	1.655109
3.637207	1.655102
3.637695	1.655051
3.638184	1.654749
3.638672	1.654982
3.639160	1.655213
3.639648	1.655025
3.640137	1.655007
3.640625	1.654658
3.641113	1.654861
3.641602	1.654937
3.642090	1.654819
3.642578	1.654896
3.643066	1.654842
3.643555	1.654940
3.644043	1.654877
3.644531	1.654506
3.645020	1.654663
3.645508	1.654582
3.645996	1.654802
3.646484	1.654708
3.646973	1.654968
3.647461	1.655006
3.647949	1.654607
3.648437	1.654641
3.648926	1.654735
3.649414	1.654815
3.649902	1.654768
3.650391	1.654734
3.650879	1.654502
3.651367	1.654718
3.651855	1.654412
3.652344	1.654777
3.652832	1.654372
3.653320	1.654276
3.653809	1.654388
3.654297	1.654635
3.654785	1.654636
3.655273	1.654405
3.655762	1.654543
3.656250	1.654412
3.656738	1.654397
3.657227	1.654381
3.657715	1.654443
3.658203	1.654772
3.658691	1.654763
3.659180	1.654380
3.659668	1.654497
3.660156	1.654316
3.660645	1.654492
3.661133	1.654593
3.661621	1.654519
3.662109	1.654341
3.662598	1.654530
3.663086	1.654422
3.663574	1.654464
3.664062	1.654467
3.664551	1.654525
3.665039	1.654449
3.665527	1.654499
3.666016	1.654431
3.666504	1.654391
3.666992	1.654139
3.667480	1.654106
3.667969	1.654519
3.668457	1.654624
3.668945	1.654174
3.669434	1.653994
3.669922	1.654044
3.670410	1.654244
3.670898	1.654245
3.671387	1.654094
3.671875	1.654013
3.672363	1.654029
3.672852	1.654347
3.673340	1.654255
3.673828	1.654228
3.674316	1.654284
3.674805	1.654181
3.675293	1.654272
3.675781	1.654308
3.676270	1.654061
3.676758	1.654198
3.677246	1.654133
3.677734	1.654448
3.678223	1.654278
3.678711	1.654106
3.679199	1.654002
3.679687	1.654240
3.680176	1.654566
3.680664	1.654143
3.681152	1.654254
3.681641	1.654064
3.682129	1.654140
3.682617	1.654303
3.683105	1.653949
3.683594	1.654197
3.684082	1.654234
3.684570	1.654281
3.685059	1.654387
3.685547	1.653904
3.686035	1.653912
3.686523	1.653995
3.687012	1.654338
3.687500	1.654526
3.687988	1.654328
3.688477	1.654242
3.688965	1.654173
3.689453	1.654384
3.689941	1.654177
3.690430	1.654274
3.690918	1.654232
3.691406	1.654361
3.691895	1.654298
3.692383	1.654252
3.692871	1.654117
3.693359	1.654161
3.693848	1.654106
3.694336	1.654432
3.694824	1.654191
3.695312	1.654174
3.695801	1.654175
3.696289	1.654189
3.696777	1.654492
3.697266	1.654302
3.697754	1.654474
3.698242	1.654367
3.698730	1.654492
3.699219	1.654501
3.699707	1.654417
3.700195	1.654622
3.700684	1.654166
3.701172	1.653941
3.701660	1.654361
3.702148	1.654494
3.702637	1.654242
3.703125	1.654256
3.703613	1.654572
3.704102	1.654479
3.704590	1.654373
3.705078	1.654247
3.705566	1.654368
3.706055	1.654362
3.706543	1.654513
3.707031	1.654330
3.707520	1.654252
3.708008	1.654218
3.708496	1.654381
3.708984	1.654658
3.709473	1.654301
3.709961	1.654322
3.710449	1.654286
3.710937	1.654259
3.711426	1.654354
3.711914	1.654403
3.712402	1.654236
3.712891	1.654238
3.713379	1.654427
3.713867	1.654282
3.714355	1.654350
3.714844	1.654447
3.715332	1.654480
3.715820	1.654633
3.716309	1.654253
3.716797	1.654078
3.717285	1.654497
3.717773	1.654417
3.718262	1.654293
3.718750	1.654208
3.719238	1.654390
3.719727	1.654082
3.720215	1.654194
3.720703	1.654200
3.721191	1.654107
3.721680	1.654211
3.722168	1.654129
3.722656	1.654095
3.723145	1.654008
3.723633	1.654228
3.724121	1.654172
3.724609	1.654024
3.725098	1.654110
3.725586	1.654324
3.726074	1.654211
3.726562	1.653989
3.727051	1.654330
3.727539	1.654612
3.728027	1.654576
3.728516	1.654361
3.729004	1.654453
3.729492	1.654271
3.729980	1.654473
3.730469	1.654557
3.730957	1.654167
3.731445	1.654145
3.731934	1.654170
3.732422	1.654245
3.732910	1.654287
3.733398	1.654251
3.733887	1.653921
3.734375	1.654139
3.734863	1.654449
3.735352	1.654161
3.735840	1.654220
3.736328	1.653916
3.736816	1.654125
3.737305	1.654417
3.737793	1.654425
3.738281	1.653867
3.738770	1.654085
3.739258	1.654121
3.739746	1.654373
3.740234	1.654228
3.740723	1.654162
3.741211	1.654133
3.741699	1.654187
3.742187	1.654358
3.742676	1.654441
3.743164	1.654309
3.743652	1.654190
3.744141	1.654405
3.744629	1.654240
3.745117	1.654285
3.745605	1.654087
3.746094	1.654085
3.746582	1.654354
3.747070	1.654217
3.747559	1.654215
3.748047	1.654165
3.748535	1.653947
3.749023	1.654120
3.749512	1.654009
3.750000	1.654348
3.750488	1.654126
3.750977	1.653979
3.751465	1.654021
3.751953	1.653890
3.752441	1.653996
3.752930	1.654051
3.753418	1.653833
3.753906	1.653559
3.754395	1.654114
3.754883	1.654321
3.755371	1.654086
3.755859	1.653965
3.756348	1.654044
3.756836	1.654240
3.757324	1.654197
3.757812	1.654071
3.758301	1.654487
3.758789	1.654409
3.759277	1.654048
3.759766	1.654115
3.760254	1.654121
3.760742	1.654211
3.761230	1.654341
3.761719	1.654124
3.762207	1.654013
3.762695	1.654065
3.763184	1.653956
3.763672	1.654202
3.764160	1.654227
3.764648	1.654231
3.765137	1.654023
3.765625	1.653883
3.766113	1.654149
3.766602	1.654194
3.767090	1.654158
3.767578	1.654161
3.768066	1.654270
3.768555	1.654437
3.769043	1.654223
3.769531	1.654245
3.770020	1.654324
3.770508	1.654269
3.770996	1.654558
3.771484	1.654703
3.771973	1.654362
3.772461	1.654416
3.772949	1.654291
3.773437	1.654618
3.773926	1.654702
3.774414	1.654642
3.774902	1.654517
3.775391	1.654461
3.775879	1.654322
3.776367	1.654596
3.776855	1.654489
3.777344	1.654503
3.777832	1.654276
3.778320	1.654912
3.778809	1.654602
3.779297	1.654468
3.779785	1.654558
3.780273	1.654455
3.780762	1.654635
3.781250	1.654736
3.781738	1.654561
3.782227	1.654506
3.782715	1.654619
3.783203	1.654687
3.783691	1.654688
3.784180	1.654553
3.784668	1.654759
3.785156	1.654923
3.785645	1.654981
3.786133	1.654921
3.786621	1.654685
3.787109	1.654783
3.787598	1.655014
3.788086	1.654868
3.788574	1.654806
3.789062	1.654652
3.789551	1.654691
3.790039	1.654681
3.790527	1.654721
3.791016	1.654699
3.791504	1.654557
3.791992	1.654461
3.792480	1.654629
3.792969	1.654854
3.793457	1.654676
3.793945	1.654655
3.794434	1.654510
3.794922	1.654443
3.795410	1.654583
3.795898	1.654632
3.796387	1.654643
3.796875	1.654752
3.797363	1.654865
3.797852	1.654893
3.798340	1.654485
3.798828	1.654366
3.799316	1.654660
3.799805	1.654712
3.800293	1.654423
3.800781	1.654425
3.801270	1.654541
3.801758	1.654444
3.802246	1.654540
3.802734	1.654502
3.803223	1.654557
3.803711	1.654561
3.804199	1.654652
3.804687	1.654492
3.805176	1.654589
3.805664	1.654184
3.806152	1.654414
3.806641	1.654688
3.807129	1.654615
3.807617	1.654602
3.808105	1.654336
3.808594	1.654142
3.809082	1.654521
3.809570	1.654658
3.810059	1.654388
3.810547	1.654093
3.811035	1.654532
3.811523	1.654467
3.812012	1.654475
3.812500	1.654391
3.812988	1.654364
3.813477	1.654381
3.813965	1.654159
3.814453	1.654375
3.814941	1.654135
3.815430	1.654134
3.815918	1.654084
3.816406	1.654151
3.816895	1.654352
3.817383	1.654056
3.817871	1.653900
3.818359	1.654145
3.818848	1.654106
3.819336	1.654224
3.819824	1.654110
3.820312	1.653979
3.820801	1.654001
3.821289	1.654187
3.821777	1.654403
3.822266	1.654186
3.822754	1.654068
3.823242	1.654137
3.823730	1.654321
3.824219	1.654507
3.824707	1.654336
3.825195	1.654228
3.825684	1.654133
3.826172	1.654356
3.826660	1.654168
3.827148	1.654236
3.827637	1.654388
3.828125	1.654285
3.828613	1.654312
3.829102	1.654175
3.829590	1.653980
3.830078	1.654039
3.830566	1.654178
3.831055	1.654090
3.831543	1.654062
3.832031	1.654189
3.832520	1.654007
3.833008	1.654102
3.833496	1.654135
3.833984	1.654196
3.834473	1.653955
3.834961	1.654145
3.835449	1.654082
3.835937	1.654158
3.836426	1.653964
3.836914	1.654092
3.837402	1.654217
3.837891	1.654196
3.838379	1.654322
3.838867	1.654315
3.839355	1.654206
3.839844	1.654190
3.840332	1.654353
3.840820	1.654159
3.841309	1.654018
3.841797	1.654120
3.842285	1.654152
3.842773	1.654235
3.843262	1.654235
3.843750	1.654264
3.844238	1.654315
3.844727	1.653880
3.845215	1.653901
3.845703	1.654077
3.846191	1.654028
3.846680	1.654114
3.847168	1.654099
3.847656	1.654361
3.848145	1.653987
3.848633	1.654027
3.849121	1.653950
3.849609	1.654091
3.850098	1.654229
3.850586	1.654235
3.851074	1.653969
3.851562	1.654073
3.852051	1.653968
3.852539	1.654070
3.853027	1.654270
3.853516	1.653973
3.854004	1.653902
3.854492	1.653974
3.854980	1.653918
3.855469	1.654048
3.855957	1.654250
3.856445	1.653905
3.856934	1.653796
3.857422	1.654194
3.857910	1.653963
3.858398	1.653818
3.858887	1.653808
3.859375	1.654003
3.859863	1.653955
3.860352	1.653780
3.860840	1.653559
3.861328	1.653573
3.861816	1.653847
3.862305	1.653774
3.862793	1.653955
3.863281	1.653771
3.863770	1.653872
3.864258	1.654071
3.864746	1.653959
3.865234	1.653977
3.865723	1.653941
3.866211	1.653916
3.866699	1.653835
3.867187	1.653995
3.867676	1.653882
3.868164	1.653813
3.868652	1.654085
3.869141	1.654072
3.869629	1.654085
3.870117	1.653841
3.870605	1.653552
3.871094	1.653877
3.871582	1.653790
3.872070	1.653905
3.872559	1.653776
3.873047	1.654053
3.873535	1.653979
3.874023	1.653971
3.874512	1.653980
3.875000	1.653916
3.875488	1.653988
3.875977	1.654049
3.876465	1.654064
3.876953	1.654236
3.877441	1.654212
3.877930	1.654178
3.878418	1.654275
3.878906	1.654522
3.879395	1.654328
3.879883	1.654228
3.880371	1.654116
3.880859	1.654363
3.881348	1.654464
3.881836	1.654298
3.882324	1.653869
3.882812	1.654256
3.883301	1.654348
3.883789	1.654204
3.884277	1.654305
3.884766	1.654253
3.885254	1.654247
3.885742	1.654072
3.886230	1.654167
3.886719	1.654096
3.887207	1.654092
3.887695	1.654510
3.888184	1.654381
3.888672	1.654428
3.889160	1.654400
3.889648	1.654630
3.890137	1.654277
3.890625	1.654262
3.891113	1.654663
3.891602	1.654925
3.892090	1.654540
3.892578	1.654544
3.893066	1.654594
3.893555	1.654690
3.894043	1.654665
3.894531	1.654641
3.895020	1.654349
3.895508	1.654594
3.895996	1.654521
3.896484	1.654607
3.896973	1.654900
3.897461	1.654753
3.897949	1.654892
3.898437	1.654674
3.898926	1.654636
3.899414	1.654790
3.899902	1.654723
3.900391	1.654471
3.900879	1.654521
3.901367	1.654577
3.901855	1.654552
3.902344	1.654633
3.902832	1.654623
3.903320	1.654378
3.903809	1.654737
3.904297	1.654641
3.904785	1.654610
3.905273	1.654759
3.905762	1.654661
3.906250	1.654710
3.906738	1.654828
3.907227	1.654696
3.907715	1.654551
3.908203	1.654735
3.908691	1.654547
3.909180	1.654578
3.909668	1.654850
3.910156	1.654824
3.910645	1.654934
3.911133	1.654319
3.911621	1.654417
3.912109	1.654923
3.912598	1.654989
3.913086	1.654517
3.913574	1.654577
3.914062	1.654508
3.914551	1.654745
3.915039	1.654717
3.915527	1.654691
3.916016	1.654654
3.916504	1.654521
3.916992	1.654751
3.917480	1.654862
3.917969	1.654856
3.918457	1.654633
3.918945	1.654574
3.919434	1.654997
3.919922	1.654641
3.920410	1.654772
3.920898	1.654630
3.921387	1.654589
3.921875	1.654639
3.922363	1.654460
3.922852	1.654436
3.923340	1.654449
3.923828	1.654957
3.924316	1.654923
3.924805	1.654782
3.925293	1.654722
3.925781	1.654545
3.926270	1.654650
3.926758	1.654334
3.927246	1.654701
3.927734	1.654881
3.928223	1.654755
3.928711	1.654647
3.929199	1.654731
3.929687	1.654586
3.930176	1.654883
3.930664	1.654748
3.931152	1.654640
3.931641	1.654426
3.932129	1.655071
3.932617	1.654907
3.933105	1.654760
3.933594	1.654755
3.934082	1.655081
3.934570	1.654862
3.935059	1.654578
3.935547	1.654534
3.936035	1.654678
3.936523	1.654669
3.937012	1.654976
3.937500	1.654589
3.937988	1.654520
3.938477	1.654591
3.938965	1.654774
3.939453	1.654722
3.939941	1.654586
3.940430	1.654611
3.940918	1.654704
3.941406	1.654704
3.941895	1.654798
3.942383	1.654699
3.942871	1.654563
3.943359	1.654921
3.943848	1.654798
3.944336	1.654666
3.944824	1.654706
3.945312	1.654655
3.945801	1.654558
3.946289	1.654560
3.946777	1.654676
3.947266	1.654759
3.947754	1.654826
3.948242	1.654640
3.948730	1.654860
3.949219	1.654627
3.949707	1.654653
3.950195	1.654847
3.950684	1.654690
3.951172	1.654687
3.951660	1.654575
3.952148	1.654713
3.952637	1.654833
3.953125	1.654767
3.953613	1.654743
3.954102	1.654314
3.954590	1.654438
3.955078	1.654649
3.955566	1.654596
3.956055	1.654695
3.956543	1.654765
3.957031	1.654714
3.957520	1.654710
3.958008	1.654555
3.958496	1.654686
3.958984	1.654635
3.959473	1.654641
3.959961	1.654815
3.960449	1.654748
3.960937	1.654841
3.961426	1.654555
3.961914	1.654601
3.962402	1.654569
3.962891	1.654766
3.963379	1.654954
3.963867	1.654505
3.964355	1.654625
3.964844	1.654685
3.965332	1.654585
3.965820	1.654817
3.966309	1.654808
3.966797	1.654531
3.967285	1.654665
3.967773	1.654503
3.968262	1.654585
3.968750	1.654391
3.969238	1.654461
3.969727	1.654903
3.970215	1.654758
3.970703	1.654594
3.971191	1.654352
3.971680	1.654520
3.972168	1.654447
3.972656	1.654442
3.973145	1.654719
3.973633	1.654734
3.974121	1.654537
3.974609	1.654654
3.975098	1.654533
3.975586	1.654455
3.976074	1.654497
3.976562	1.654478
3.977051	1.654360
3.977539	1.654791
3.978027	1.654739
3.978516	1.654538
3.979004	1.654560
3.979492	1.654654
3.979980	1.654610
3.980469	1.654654
3.980957	1.654507
3.981445	1.654474
3.981934	1.654396
3.982422	1.654397
3.982910	1.654578
3.983398	1.654502
3.983887	1.654292
3.984375	1.654333
3.984863	1.654627
3.985352	1.654720
3.985840	1.654397
3.986328	1.654533
3.986816	1.654364
3.987305	1.654544
3.987793	1.654462
3.988281	1.654341
3.988770	1.654602
3.989258	1.654770
3.989746	1.654701
3.990234	1.654263
3.990723	1.653760
3.991211	1.654453
3.991699	1.654494
3.992187	1.654444
3.992676	1.654139
3.993164	1.654383
3.993652	1.654353
3.994141	1.654204
3.994629	1.654307
3.995117	1.654092
3.995605	1.654258
3.996094	1.654435
3.996582	1.654372
3.997070	1.654142
3.997559	1.654317
3.998047	1.654286
3.998535	1.654453
3.999023	1.654490
3.999512	1.654437
4.000000	1.654400
4.000488	1.654167
4.000977	1.654222
4.001465	1.654781
4.001953	1.654664
4.002441	1.654402
4.002930	1.654499
4.003418	1.654257
4.003906	1.654555
4.004395	1.654615
4.004883	1.654259
4.005371	1.654149
4.005859	1.654419
4.006348	1.654456
4.006836	1.654043
4.007324	1.654158
4.007812	1.654239
4.008301	1.654442
4.008789	1.654300
4.009277	1.654086
4.009766	1.654223
4.010254	1.654251
4.010742	1.654435
4.011230	1.654587
4.011719	1.654416
4.012207	1.654345
4.012695	1.654604
4.013184	1.654505
4.013672	1.654584
4.014160	1.654508
4.014648	1.654439
4.015137	1.654606
4.015625	1.654600
4.016113	1.654545
4.016602	1.654571
4.017090	1.654416
4.017578	1.654665
4.018066	1.654643
4.018555	1.654419
4.019043	1.654384
4.019531	1.654528
4.020020	1.654438
4.020508	1.654236
4.020996	1.653906
4.021484	1.654587
4.021973	1.654202
4.022461	1.654381
4.022949	1.654378
4.023437	1.654433
4.023926	1.654500
4.024414	1.654133
4.024902	1.654233
4.025391	1.654380
4.025879	1.654425
4.026367	1.654316
4.026855	1.654439
4.027344	1.654511
4.027832	1.654541
4.028320	1.654412
4.028809	1.654374
4.029297	1.654608
4.029785	1.654669
4.030273	1.654705
4.030762	1.654516
4.031250	1.654467
4.031738	1.654409
4.032227	1.654663
4.032715	1.654785
4.033203	1.654510
4.033691	1.654398
4.034180	1.654181
4.034668	1.654375
4.035156	1.654602
4.035645	1.654444
4.036133	1.654210
4.036621	1.654381
4.037109	1.654652
4.037598	1.654604
4.038086	1.654405
4.038574	1.654418
4.039062	1.654315
4.039551	1.654695
4.040039	1.654578
4.040527	1.654449
4.041016	1.654543
4.041504	1.654469
4.041992	1.654798
4.042480	1.654161
4.042969	1.654364
4.043457	1.654477
4.043945	1.654500
4.044434	1.654326
4.044922	1.654602
4.045410	1.654575
4.045898	1.654305
4.046387	1.654434
4.046875	1.654305
4.047363	1.654452
4.047852	1.654301
4.048340	1.654107
4.048828	1.654023
4.049316	1.654394
4.049805	1.654397
4.050293	1.654373
4.050781	1.654262
4.051270	1.654314
4.051758	1.654479
4.052246	1.654370
4.052734	1.654192
4.053223	1.654500
4.053711	1.654629
4.054199	1.654524
4.054687	1.654459
4.055176	1.654604
4.055664	1.654669
4.056152	1.654631
4.056641	1.654647
4.057129	1.654719
4.057617	1.654644
4.058105	1.654619
4.058594	1.654720
4.059082	1.654867
4.059570	1.654489
4.060059	1.654551
4.060547	1.654506
4.061035	1.654522
4.061523	1.654822
4.062012	1.654622
4.062500	1.654452
4.062988	1.654652
4.063477	1.654230
4.063965	1.654567
4.064453	1.654518
4.064941	1.654352
4.065430	1.654200
4.065918	1.654637
4.066406	1.654573
4.066895	1.654510
4.067383	1.654766
4.067871	1.654759
4.068359	1.654791
4.068848	1.654589
4.069336	1.654568
4.069824	1.654527
4.070312	1.654911
4.070801	1.654995
4.071289	1.654765
4.071777	1.654848
4.072266	1.654588
4.072754	1.654873
4.073242	1.654539
4.073730	1.654491
4.074219	1.654743
4.074707	1.654823
4.075195	1.654502
4.075684	1.654567
4.076172	1.654572
4.076660	1.654683
4.077148	1.654672
4.077637	1.654722
4.078125	1.654615
4.078613	1.654523
4.079102	1.654384
4.079590	1.654635
4.080078	1.654826
4.080566	1.654613
4.081055	1.654485
4.081543	1.654707
4.082031	1.654434
4.082520	1.654852
4.083008	1.654631
4.083496	1.654573
4.083984	1.654502
4.084473	1.654378
4.084961	1.654604
4.085449	1.654294
4.085937	1.654573
4.086426	1.654600
4.086914	1.654450
4.087402	1.654677
4.087891	1.654599
4.088379	1.654359
4.088867	1.654311
4.089355	1.654352
4.089844	1.654705
4.090332	1.654564
4.090820	1.654223
4.091309	1.654309
4.091797	1.654323
4.092285	1.654523
4.092773	1.654535
4.093262	1.654370
4.093750	1.654345
4.094238	1.654403
4.094727	1.654544
4.095215	1.654591
4.095703	1.654581
4.096191	1.654249
4.096680	1.654522
4.097168	1.654846
4.097656	1.654585
4.098145	1.654621
4.098633	1.654357
4.099121	1.654516
4.099609	1.654549
4.100098	1.654357
4.100586	1.654151
4.101074	1.654114
4.101562	1.654239
4.102051	1.654409
4.102539	1.654457
4.103027	1.654347
4.103516	1.654396
4.104004	1.654484
4.104492	1.654418
4.104980	1.654513
4.105469	1.654560
4.105957	1.654420
4.106445	1.654337
4.106934	1.654628
4.107422	1.654554
4.107910	1.654561
4.108398	1.654549
4.108887	1.654477
4.109375	1.654613
4.109863	1.654431
4.110352	1.654627
4.110840	1.654187
4.111328	1.654687
4.111816	1.654641
4.112305	1.654621
4.112793	1.654554
4.113281	1.654378
4.113770	1.654575
4.114258	1.654347
4.114746	1.654397
4.115234	1.654474
4.115723	1.654793
4.116211	1.654636
4.116699	1.654571
4.117187	1.654455
4.117676	1.654538
4.118164	1.654599
4.118652	1.654528
4.119141	1.654472
4.119629	1.654316
4.120117	1.654494
4.120605	1.654419
4.121094	1.654519
4.121582	1.654520
4.122070	1.654299
4.122559	1.654677
4.123047	1.654517
4.123535	1.654770
4.124023	1.654525
4.124512	1.654523
4.125000	1.654486
4.125488	1.654557
4.125977	1.654547
4.126465	1.654482
4.126953	1.654512
4.127441	1.654387
4.127930	1.654708
4.128418	1.654632
4.128906	1.654681
4.129395	1.654689
4.129883	1.654526
4.130371	1.654569
4.130859	1.654527
4.131348	1.654532
4.131836	1.654685
4.132324	1.654526
4.132812	1.654400
4.133301	1.654600
4.133789	1.654554
4.134277	1.654447
4.134766	1.654656
4.135254	1.654782
4.135742	1.654915
4.136230	1.654730
4.136719	1.654719
4.137207	1.654832
4.137695	1.655049
4.138184	1.655144
4.138672	1.654663
4.139160	1.654385
4.139648	1.654695
4.140137	1.654748
4.140625	1.654710
4.141113	1.654650
4.141602	1.654740
4.142090	1.654652
4.142578	1.654792
4.143066	1.654696
4.143555	1.654499
4.144043	1.654634
4.144531	1.654862
4.145020	1.654771
4.145508	1.654621
4.145996	1.654791
4.146484	1.654726
4.146973	1.654964
4.147461	1.654906
4.147949	1.654936
4.148437	1.654749
4.148926	1.654925
4.149414	1.655018
4.149902	1.655150
4.150391	1.654901
4.150879	1.654410
4.151367	1.654810
4.151855	1.654796
4.152344	1.655050
4.152832	1.655195
4.153320	1.654957
4.153809	1.654942
4.154297	1.654807
4.154785	1.654901
4.155273	1.654961
4.155762	1.654872
4.156250	1.654719
4.156738	1.654842
4.157227	1.655219
4.157715	1.654937
4.158203	1.654824
4.158691	1.654877
4.159180	1.655030
4.159668	1.655115
4.160156	1.654991
4.160645	1.654804
4.161133	1.654858
4.161621	1.654995
4.162109	1.655007
4.162598	1.655051
4.163086	1.654906
4.163574	1.655031
4.164062	1.655081
4.164551	1.655223
4.165039	1.655001
4.165527	1.654827
4.166016	1.654994
4.166504	1.655186
4.166992	1.655198
4.167480	1.655025
4.167969	1.654956
4.168457	1.655149
4.168945	1.655287
4.169434	1.654945
4.169922	1.654568
4.170410	1.654600
4.170898	1.654784
4.171387	1.655004
4.171875	1.655037
4.172363	1.654699
4.172852	1.654842
4.173340	1.654719
4.173828	1.654911
4.174316	1.654560
4.174805	1.654513
4.175293	1.654948
4.175781	1.655076
4.176270	1.654693
4.176758	1.654777
4.177246	1.654779
4.177734	1.654857
4.178223	1.655054
4.178711	1.654890
4.179199	1.654693
4.179687	1.654741
4.180176	1.654631
4.180664	1.654799
4.181152	1.654868
4.181641	1.654704
4.182129	1.654709
4.182617	1.655122
4.183105	1.654862
4.183594	1.654782
4.184082	1.654730
4.184570	1.654658
4.185059	1.654747
4.185547	1.654867
4.186035	1.654664
4.186523	1.654589
4.187012	1.654912
4.187500	1.655194
4.187988	1.654870
4.188477	1.654945
4.188965	1.654846
4.189453	1.654809
4.189941	1.654960
4.190430	1.655203
4.190918	1.655327
4.191406	1.655095
4.191895	1.654980
4.192383	1.655128
4.192871	1.655025
4.193359	1.655138
4.193848	1.655157
4.194336	1.655054
4.194824	1.655094
4.195312	1.655232
4.195801	1.655044
4.196289	1.654847
4.196777	1.654981
4.197266	1.655172
4.197754	1.655106
4.198242	1.655113
4.198730	1.654945
4.199219	1.654892
4.199707	1.655039
4.200195	1.655177
4.200684	1.655001
4.201172	1.654922
4.201660	1.655043
4.202148	1.655156
4.202637	1.655043
4.203125	1.655087
4.203613	1.655308
4.204102	1.655146
4.204590	1.654999
4.205078	1.655402
4.205566	1.655383
4.206055	1.655127
4.206543	1.655183
4.207031	1.655265
4.207520	1.655483
4.208008	1.655271
4.208496	1.655119
4.208984	1.654893
4.209473	1.655117
4.209961	1.655310
4.210449	1.655122
4.210937	1.654929
4.211426	1.655149
4.211914	1.655094
4.212402	1.655031
4.212891	1.654841
4.213379	1.655011
4.213867	1.655150
4.214355	1.655091
4.214844	1.655091
4.215332	1.655044
4.215820	1.654852
4.216309	1.655158
4.216797	1.655226
4.217285	1.655253
4.217773	1.655130
4.218262	1.655069
4.218750	1.655109
4.219238	1.655062
4.219727	1.655046
4.220215	1.654868
4.220703	1.654954
4.221191	1.655002
4.221680	1.654778
4.222168	1.654789
4.222656	1.654708
4.223145	1.654949
4.223633	1.655121
4.224121	1.654987
4.224609	1.654918
4.225098	1.654945
4.225586	1.654894
4.226074	1.655148
4.226562	1.655095
4.227051	1.654785
4.227539	1.654815
4.228027	1.654958
4.228516	1.654984
4.229004	1.654973
4.229492	1.654818
4.229980	1.654914
4.230469	1.654788
4.230957	1.655004
4.231445	1.654802
4.231934	1.654585
4.232422	1.654830
4.232910	1.655014
4.233398	1.655075
4.233887	1.654961
4.234375	1.654907
4.234863	1.654809
4.235352	1.654789
4.235840	1.654946
4.236328	1.655040
4.236816	1.655085
4.237305	1.654876
4.237793	1.654959
4.238281	1.655214
4.238770	1.654997
4.239258	1.655170
4.239746	1.654935
4.240234	1.654969
4.240723	1.655000
4.241211	1.654903
4.241699	1.654640
4.242187	1.654666
4.242676	1.655153
4.243164	1.655103
4.243652	1.654952
4.244141	1.654865
4.244629	1.654770
4.245117	1.654945
4.245605	1.654867
4.246094	1.654998
4.246582	1.655007
4.247070	1.655106
4.247559	1.654982
4.248047	1.654819
4.248535	1.654807
4.249023	1.654785
4.249512	1.654898
4.250000	1.654878
4.250488	1.654755
4.250977	1.654934
4.251465	1.654748
4.251953	1.654865
4.252441	1.654909
4.252930	1.654821
4.253418	1.654935
4.253906	1.654790
4.254395	1.654788
4.254883	1.654806
4.255371	1.655116
4.255859	1.655041
4.256348	1.654782
4.256836	1.654943
4.257324	1.655065
4.257812	1.655017
4.258301	1.654872
4.258789	1.654980
4.259277	1.655330
4.259766	1.655149
4.260254	1.655113
4.260742	1.654918
4.261230	1.654602
4.261719	1.655035
4.262207	1.655270
4.262695	1.654717
4.263184	1.654608
4.263672	1.654998
4.264160	1.654764
4.264648	1.654715
4.265137	1.654847
4.265625	1.654724
4.266113	1.654741
4.266602	1.654923
4.267090	1.654890
4.267578	1.654854
4.268066	1.654751
4.268555	1.654657
4.269043	1.655025
4.269531	1.654879
4.270020	1.655047
4.270508	1.654705
4.270996	1.654742
4.271484	1.655087
4.271973	1.655024
4.272461	1.654978
4.272949	1.654895
4.273437	1.655056
4.273926	1.654832
4.274414	1.655059
4.274902	1.655183
4.275391	1.655023
4.275879	1.654921
4.276367	1.654703
4.276855	1.654813
4.277344	1.654863
4.277832	1.654737
4.278320	1.654608
4.278809	1.654807
4.279297	1.655029
4.279785	1.654769
4.280273	1.654653
4.280762	1.654553
4.281250	1.654685
4.281738	1.654912
4.282227	1.654799
4.282715	1.654657
4.283203	1.654733
4.283691	1.654715
4.284180	1.654927
4.284668	1.654771
4.285156	1.654843
4.285645	1.654932
4.286133	1.655039
4.286621	1.655167
4.287109	1.654862
4.287598	1.654951
4.288086	1.654900
4.288574	1.655057
4.289062	1.654791
4.289551	1.654743
4.290039	1.655222
4.290527	1.655197
4.291016	1.654897
4.291504	1.654771
4.291992	1.654582
4.292480	1.654806
4.292969	1.654970
4.293457	1.654693
4.293945	1.654439
4.294434	1.654744
4.294922	1.654791
4.295410	1.654842
4.295898	1.654809
4.296387	1.654978
4.296875	1.654799
4.297363	1.654634
4.297852	1.654658
4.298340	1.654770
4.298828	1.654943
4.299316	1.654726
4.299805	1.654898
4.300293	1.654931
4.300781	1.654723
4.301270	1.654732
4.301758	1.654686
4.302246	1.654801
4.302734	1.654923
4.303223	1.654892
4.303711	1.654654
4.304199	1.654662
4.304687	1.654645
4.305176	1.654756
4.305664	1.654726
4.306152	1.654549
4.306641	1.654430
4.307129	1.654689
4.307617	1.654979
4.308105	1.654698
4.308594	1.654771
4.309082	1.654502
4.309570	1.654648
4.310059	1.654546
4.310547	1.654585
4.311035	1.654827
4.311523	1.654833
4.312012	1.654730
4.312500	1.654698
4.312988	1.654352
4.313477	1.654621
4.313965	1.654691
4.314453	1.654635
4.314941	1.654563
4.315430	1.654754
4.315918	1.654541
4.316406	1.654477
4.316895	1.654589
4.317383	1.654921
4.317871	1.654729
4.318359	1.654187
4.318848	1.654392
4.319336	1.654501
4.319824	1.654593
4.320312	1.654424
4.320801	1.654510
4.321289	1.654575
4.321777	1.654483
4.322266	1.654381
4.322754	1.654359
4.323242	1.654367
4.323730	1.654621
4.324219	1.654569
4.324707	1.654456
4.325195	1.654452
4.325684	1.654605
4.326172	1.654618
4.326660	1.654647
4.327148	1.654775
4.327637	1.654762
4.328125	1.654508
4.328613	1.654640
4.329102	1.655042
4.329590	1.654798
4.330078	1.654635
4.330566	1.654536
4.331055	1.654539
4.331543	1.654769
4.332031	1.654824
4.332520	1.654689
4.333008	1.654664
4.333496	1.654528
4.333984	1.654565
4.334473	1.654719
4.334961	1.654553
4.335449	1.654413
4.335937	1.654388
4.336426	1.654801
4.336914	1.654659
4.337402	1.654647
4.337891	1.654600
4.338379	1.654712
4.338867	1.654940
4.339355	1.654832
4.339844	1.654603
4.340332	1.654577
4.340820	1.654704
4.341309	1.654604
4.341797	1.654730
4.342285	1.654558
4.342773	1.654532
4.343262	1.654675
4.343750	1.654768
4.344238	1.654663
4.344727	1.654763
4.345215	1.654824
4.345703	1.654755
4.346191	1.654741
4.346680	1.654471
4.347168	1.654887
4.347656	1.655144
4.348145	1.654716
4.348633	1.654566
4.349121	1.654807
4.349609	1.654793
4.350098	1.654877
4.350586	1.654746
4.351074	1.654803
4.351562	1.654947
4.352051	1.654470
4.352539	1.654929
4.353027	1.655474
4.353516	1.655037
4.354004	1.654871
4.354492	1.654823
4.354980	1.654677
4.355469	1.655036
4.355957	1.654953
4.356445	1.654975
4.356934	1.654716
4.357422	1.654784
4.357910	1.654798
4.358398	1.654962
4.358887	1.654673
4.359375	1.654522
4.359863	1.654829
4.360352	1.654812
4.360840	1.654592
4.361328	1.654860
4.361816	1.654660
4.362305	1.654774
4.362793	1.654754
4.363281	1.654663
4.363770	1.654732
4.364258	1.654824
4.364746	1.654805
4.365234	1.654959
4.365723	1.655003
4.366211	1.654747
4.366699	1.654708
4.367187	1.654716
4.367676	1.654959
4.368164	1.654820
4.368652	1.654738
4.369141	1.654857
4.369629	1.654965
4.370117	1.654942
4.370605	1.654834
4.371094	1.654449
4.371582	1.654818
4.372070	1.655185
4.372559	1.654916
4.373047	1.654777
4.373535	1.654809
4.374023	1.654873
4.374512	1.655024
4.375000	1.654986
4.375488	1.654925
4.375977	1.654870
4.376465	1.654552
4.376953	1.654791
4.377441	1.654989
4.377930	1.655018
4.378418	1.654596
4.378906	1.654837
4.379395	1.655279
4.379883	1.654933
4.380371	1.654921
4.380859	1.654611
4.381348	1.655003
4.381836	1.654892
4.382324	1.654777
4.382812	1.654807
4.383301	1.654620
4.383789	1.654991
4.384277	1.655084
4.384766	1.654982
4.385254	1.654680
4.385742	1.654744
4.386230	1.654904
4.386719	1.654737
4.387207	1.654732
4.387695	1.655022
4.388184	1.654522
4.388672	1.654714
4.389160	1.654960
4.389648	1.654860
4.390137	1.654900
4.390625	1.654646
4.391113	1.654823
4.391602	1.655001
4.392090	1.654439
4.392578	1.654723
4.393066	1.655255
4.393555	1.654790
4.394043	1.654677
4.394531	1.654637
4.395020	1.654719
4.395508	1.654808
4.395996	1.654697
4.396484	1.654636
4.396973	1.654532
4.397461	1.654873
4.397949	1.654658
4.398437	1.654850
4.398926	1.654800
4.399414	1.654663
4.399902	1.654513
4.400391	1.654127
4.400879	1.654507
4.401367	1.654629
4.401855	1.654536
4.402344	1.654325
4.402832	1.654780
4.403320	1.654779
4.403809	1.654614
4.404297	1.654542
4.404785	1.654460
4.405273	1.654793
4.405762	1.654500
4.406250	1.654588
4.406738	1.654489
4.407227	1.654675
4.407715	1.654815
4.408203	1.654611
4.408691	1.654892
4.409180	1.654600
4.409668	1.654817
4.410156	1.654670
4.410645	1.654865
4.411133	1.654713
4.411621	1.654449
4.412109	1.654333
4.412598	1.654692
4.413086	1.654714
4.413574	1.654619
4.414062	1.654458
4.414551	1.654530
4.415039	1.654632
4.415527	1.654524
4.416016	1.654348
4.416504	1.654824
4.416992	1.654891
4.417480	1.654784
4.417969	1.654765
4.418457	1.654639
4.418945	1.654757
4.419434	1.654857
4.419922	1.654916
4.420410	1.654751
4.420898	1.654743
4.421387	1.654733
4.421875	1.654875
4.422363	1.654976
4.422852	1.654768
4.423340	1.654679
4.423828	1.654612
4.424316	1.654530
4.424805	1.654730
4.425293	1.654694
4.425781	1.654398
4.426270	1.654476
4.426758	1.654604
4.427246	1.654485
4.427734	1.654447
4.428223	1.654471
4.428711	1.654197
4.429199	1.654525
4.429687	1.654483
4.430176	1.654398
4.430664	1.654308
4.431152	1.654547
4.431641	1.654699
4.432129	1.654733
4.432617	1.654638
4.433105	1.654502
4.433594	1.654618
4.434082	1.654812
4.434570	1.654838
4.435059	1.654849
4.435547	1.654660
4.436035	1.654628
4.436523	1.654669
4.437012	1.654885
4.437500	1.654836
4.437988	1.654634
4.438477	1.654798
4.438965	1.654777
4.439453	1.654694
4.439941	1.654737
4.440430	1.654944
4.440918	1.654623
4.441406	1.654721
4.441895	1.654752
4.442383	1.654554
4.442871	1.654562
4.443359	1.654663
4.443848	1.655016
4.444336	1.654769
4.444824	1.654671
4.445312	1.654720
4.445801	1.654795
4.446289	1.654833
4.446777	1.654605
4.447266	1.654865
4.447754	1.654918
4.448242	1.654835
4.448730	1.655031
4.449219	1.654826
4.449707	1.654813
4.450195	1.654728
4.450684	1.654572
4.451172	1.654976
4.451660	1.654979
4.452148	1.654779
4.452637	1.654636
4.453125	1.654624
4.453613	1.654821
4.454102	1.654791
4.454590	1.654594
4.455078	1.654418
4.455566	1.654765
4.456055	1.654887
4.456543	1.654640
4.457031	1.654521
4.457520	1.654606
4.458008	1.654887
4.458496	1.654889
4.458984	1.654876
4.459473	1.654580
4.459961	1.654665
4.460449	1.654743
4.460937	1.654938
4.461426	1.654885
4.461914	1.654688
4.462402	1.654709
4.462891	1.655105
4.463379	1.654859
4.463867	1.655039
4.464355	1.654857
4.464844	1.654815
4.465332	1.654992
4.465820	1.654806
4.466309	1.654906
4.466797	1.655251
4.467285	1.655006
4.467773	1.655020
4.468262	1.654908
4.468750	1.654807
4.469238	1.655051
4.469727	1.655018
4.470215	1.654857
4.470703	1.654811
4.471191	1.654928
4.471680	1.654748
4.472168	1.655028
4.472656	1.655109
4.473145	1.655092
4.473633	1.654776
4.474121	1.654594
4.474609	1.655026
4.475098	1.655118
4.475586	1.655078
4.476074	1.654708
4.476562	1.655079
4.477051	1.655141
4.477539	1.655303
4.478027	1.655156
4.478516	1.655018
4.479004	1.655064
4.479492	1.654989
4.479980	1.655073
4.480469	1.655241
4.480957	1.654819
4.481445	1.654815
4.481934	1.655047
4.482422	1.654961
4.482910	1.654912
4.483398	1.654974
4.483887	1.654840
4.484375	1.654918
4.484863	1.655086
4.485352	1.654678
4.485840	1.654799
4.486328	1.654926
4.486816	1.654766
4.487305	1.654947
4.487793	1.654850
4.488281	1.654615
4.488770	1.654815
4.489258	1.655051
4.489746	1.655075
4.490234	1.655029
4.490723	1.654573
4.491211	1.654665
4.491699	1.654878
4.492187	1.654824
4.492676	1.654730
4.493164	1.654741
4.493652	1.654699
4.494141	1.654691
4.494629	1.654805
4.495117	1.654626
4.495605	1.654642
4.496094	1.654593
4.496582	1.654563
4.497070	1.654608
4.497559	1.654623
4.498047	1.654516
4.498535	1.654777
4.499023	1.654737
4.499512	1.654441
4.500000	1.654538
4.500488	1.654312
4.500977	1.654547
4.501465	1.654749
4.501953	1.654613
4.502441	1.654588
4.502930	1.654429
4.503418	1.654579
4.503906	1.654744
4.504395	1.654680
4.504883	1.654350
4.505371	1.654442
4.505859	1.654496
4.506348	1.654848
4.506836	1.654445
4.507324	1.654630
4.507812	1.654537
4.508301	1.654500
4.508789	1.654628
4.509277	1.654518
4.509766	1.654622
4.510254	1.654287
4.510742	1.654292
4.511230	1.654411
4.511719	1.654431
4.512207	1.654701
4.512695	1.654760
4.513184	1.654608
4.513672	1.654593
4.514160	1.654270
4.514648	1.654478
4.515137	1.654797
4.515625	1.654701
4.516113	1.654635
4.516602	1.654715
4.517090	1.654707
4.517578	1.654670
4.518066	1.654810
4.518555	1.654642
4.519043	1.654521
4.519531	1.654297
4.520020	1.654605
4.520508	1.655125
4.520996	1.654664
4.521484	1.654479
4.521973	1.654543
4.522461	1.654681
4.522949	1.655053
4.523437	1.654777
4.523926	1.654486
4.524414	1.654473
4.524902	1.654850
4.525391	1.654771
4.525879	1.654628
4.526367	1.654488
4.526855	1.654827
4.527344	1.654541
4.527832	1.654611
4.528320	1.654519
4.528809	1.654619
4.529297	1.654604
4.529785	1.654664
4.530273	1.654966
4.530762	1.654763
4.531250	1.654588
4.531738	1.654570
4.532227	1.654657
4.532715	1.654921
4.533203	1.654641
4.533691	1.654309
4.534180	1.654272
4.534668	1.654708
4.535156	1.654745
4.535645	1.654617
4.536133	1.654521
4.536621	1.654479
4.537109	1.654581
4.537598	1.654579
4.538086	1.654447
4.538574	1.654582
4.539062	1.654575
4.539551	1.654449
4.540039	1.654561
4.540527	1.654544
4.541016	1.654549
4.541504	1.654668
4.541992	1.654625
4.542480	1.654745
4.542969	1.654609
4.543457	1.654597
4.543945	1.654759
4.544434	1.654917
4.544922	1.654666
4.545410	1.654779
4.545898	1.654630
4.546387	1.654743
4.546875	1.654981
4.547363	1.654935
4.547852	1.654779
4.548340	1.654466
4.548828	1.654560
4.549316	1.654755
4.549805	1.654890
4.550293	1.654489
4.550781	1.654309
4.551270	1.654727
4.551758	1.654771
4.552246	1.654835
4.552734	1.654625
4.553223	1.654435
4.553711	1.654670
4.554199	1.654793
4.554687	1.654570
4.555176	1.654780
4.555664	1.654640
4.556152	1.654854
4.556641	1.654469
4.557129	1.654487
4.557617	1.654582
4.558105	1.654635
4.558594	1.654726
4.559082	1.654713
4.559570	1.654909
4.560059	1.654609
4.560547	1.654589
4.561035	1.654537
4.561523	1.654551
4.562012	1.654486
4.562500	1.654316
4.562988	1.654320
4.563477	1.654408
4.563965	1.654503
4.564453	1.654282
4.564941	1.654325
4.565430	1.654486
4.565918	1.654428
4.566406	1.654593
4.566895	1.654630
4.567383	1.654584
4.567871	1.654189
4.568359	1.654448
4.568848	1.654432
4.569336	1.654713
4.569824	1.654798
4.570312	1.654611
4.570801	1.654638
4.571289	1.654640
4.571777	1.654583
4.572266	1.654182
4.572754	1.654398
4.573242	1.654984
4.573730	1.654706
4.574219	1.654220
4.574707	1.654384
4.575195	1.654842
4.575684	1.654803
4.576172	1.654623
4.576660	1.654527
4.577148	1.654473
4.577637	1.654458
4.578125	1.654519
4.578613	1.654550
4.579102	1.654668
4.579590	1.654452
4.580078	1.654499
4.580566	1.654509
4.581055	1.654417
4.581543	1.654596
4.582031	1.654333
4.582520	1.654455
4.583008	1.654621
4.583496	1.654570
4.583984	1.654565
4.584473	1.654665
4.584961	1.654618
4.585449	1.654686
4.585937	1.654863
4.586426	1.654685
4.586914	1.654583
4.587402	1.654867
4.587891	1.655070
4.588379	1.654652
4.588867	1.654247
4.589355	1.654516
4.589844	1.654466
4.590332	1.654794
4.590820	1.654767
4.591309	1.654566
4.591797	1.654710
4.592285	1.654699
4.592773	1.654646
4.593262	1.654294
4.593750	1.654586
4.594238	1.654951
4.594727	1.654771
4.595215	1.654460
4.595703	1.654810
4.596191	1.654787
4.596680	1.654824
4.597168	1.654912
4.597656	1.655022
4.598145	1.654759
4.598633	1.654710
4.599121	1.654925
4.599609	1.654865
4.600098	1.654801
4.600586	1.654678
4.601074	1.654594
4.601562	1.654543
4.602051	1.654943
4.602539	1.654942
4.603027	1.654824
4.603516	1.654625
4.604004	1.654846
4.604492	1.654932
4.604980	1.654760
4.605469	1.654859
4.605957	1.654610
4.606445	1.654871
4.606934	1.654887
4.607422	1.654824
4.607910	1.654974
4.608398	1.654876
4.608887	1.654828
4.609375	1.654890
4.609863	1.654873
4.610352	1.655115
4.610840	1.655084
4.611328	1.654962
4.611816	1.654997
4.612305	1.655223
4.612793	1.654996
4.613281	1.655034
4.613770	1.655024
4.614258	1.654920
4.614746	1.655103
4.615234	1.654975
4.615723	1.655011
4.616211	1.655110
4.616699	1.655103
4.617187	1.654935
4.617676	1.654918
4.618164	1.654860
4.618652	1.655277
4.619141	1.655104
4.619629	1.654834
4.620117	1.654737
4.620605	1.654571
4.621094	1.654744
4.621582	1.654885
4.622070	1.654752
4.622559	1.654498
4.623047	1.654682
4.623535	1.654849
4.624023	1.654915
4.624512	1.654773
4.625000	1.654768
4.625488	1.654847
4.625977	1.654604
4.626465	1.654838
4.626953	1.655255
4.627441	1.654898
4.627930	1.654544
4.628418	1.654917
4.628906	1.654994
4.629395	1.654799
4.629883	1.654843
4.630371	1.654440
4.630859	1.654470
4.631348	1.654515
4.631836	1.654529
4.632324	1.654737
4.632812	1.654799
4.633301	1.654633
4.633789	1.654615
4.634277	1.654469
4.634766	1.654475
4.635254	1.654549
4.635742	1.654648
4.636230	1.654727
4.636719	1.654465
4.637207	1.654724
4.637695	1.654823
4.638184	1.654832
4.638672	1.654612
4.639160	1.654594
4.639648	1.654818
4.640137	1.654711
4.640625	1.654917
4.641113	1.654834
4.641602	1.654566
4.642090	1.654479
4.642578	1.654589
4.643066	1.654807
4.643555	1.654762
4.644043	1.654324
4.644531	1.654275
4.645020	1.654662
4.645508	1.654403
4.645996	1.654561
4.646484	1.654517
4.646973	1.654633
4.647461	1.654455
4.647949	1.653945
4.648437	1.654275
4.648926	1.654394
4.649414	1.654204
4.649902	1.654277
4.650391	1.654445
4.650879	1.654375
4.651367	1.654431
4.651855	1.654585
4.652344	1.654521
4.652832	1.654513
4.653320	1.654277
4.653809	1.654293
4.654297	1.654564
4.654785	1.654571
4.655273	1.654227
4.655762	1.654283
4.656250	1.654401
4.656738	1.654315
4.657227	1.654462
4.657715	1.654342
4.658203	1.654171
4.658691	1.654467
4.659180	1.654200
4.659668	1.654363
4.660156	1.654384
4.660645	1.654002
4.661133	1.654129
4.661621	1.654286
4.662109	1.654245
4.662598	1.654337
4.663086	1.653960
4.663574	1.654106
4.664062	1.654462
4.664551	1.654265
4.665039	1.654311
4.665527	1.654227
4.666016	1.654216
4.666504	1.654325
4.666992	1.654123
4.667480	1.654247
4.667969	1.654108
4.668457	1.654120
4.668945	1.654219
4.669434	1.654394
4.669922	1.654463
4.670410	1.654045
4.670898	1.654057
4.671387	1.654081
4.671875	1.654193
4.672363	1.654147
4.672852	1.654059
4.673340	1.654125
4.673828	1.654155
4.674316	1.654091
4.674805	1.654162
4.675293	1.654328
4.675781	1.654039
4.676270	1.654042
4.676758	1.654339
4.677246	1.654500
4.677734	1.654320
4.678223	1.654477
4.678711	1.654369
4.679199	1.654560
4.679687	1.654316
4.680176	1.654383
4.680664	1.654450
4.681152	1.654326
4.681641	1.654442
4.682129	1.654238
4.682617	1.654291
4.683105	1.654464
4.683594	1.654319
4.684082	1.654458
4.684570	1.654229
4.685059	1.654266
4.685547	1.654450
4.686035	1.654496
4.686523	1.654444
4.687012	1.654546
4.687500	1.654408
4.687988	1.654325
4.688477	1.654633
4.688965	1.655033
4.689453	1.654349
4.689941	1.654199
4.690430	1.654645
4.690918	1.654706
4.691406	1.654842
4.691895	1.654722
4.692383	1.654705
4.692871	1.654742
4.693359	1.654949
4.693848	1.654876
4.694336	1.654707
4.694824	1.654896
4.695312	1.655052
4.695801	1.654879
4.696289	1.654729
4.696777	1.654867
4.697266	1.655059
4.697754	1.655145
4.698242	1.654862
4.698730	1.654806
4.699219	1.654616
4.699707	1.654574
4.700195	1.654935
4.700684	1.654683
4.701172	1.654657
4.701660	1.654618
4.702148	1.654986
4.702637	1.655158
4.703125	1.655079
4.703613	1.655079
4.704102	1.654959
4.704590	1.655059
4.705078	1.654906
4.705566	1.655186
4.706055	1.655043
4.706543	1.655067
4.707031	1.655055
4.707520	1.655366
4.708008	1.655466
4.708496	1.655167
4.708984	1.655041
4.709473	1.655045
4.709961	1.655079
4.710449	1.654833
4.710937	1.654724
4.711426	1.655285
4.711914	1.655150
4.712402	1.654668
4.712891	1.654910
4.713379	1.655013
4.713867	1.654865
4.714355	1.654928
4.714844	1.654848
4.715332	1.654779
4.715820	1.654553
4.716309	1.654471
4.716797	1.655110
4.717285	1.655061
4.717773	1.654649
4.718262	1.654711
4.718750	1.654969
4.719238	1.655050
4.719727	1.654892
4.720215	1.654688
4.720703	1.654616
4.721191	1.654642
4.721680	1.654726
4.722168	1.654890
4.722656	1.654906
4.723145	1.654481
4.723633	1.654508
4.724121	1.654677
4.724609	1.654647
4.725098	1.654585
4.725586	1.654429
4.726074	1.654557
4.726562	1.654480
4.727051	1.654485
4.727539	1.654526
4.728027	1.654428
4.728516	1.654420
4.729004	1.654459
4.729492	1.654298
4.729980	1.654278
4.730469	1.654286
4.730957	1.654414
4.731445	1.654458
4.731934	1.654414
4.732422	1.654386
4.732910	1.654332
4.733398	1.654591
4.733887	1.654366
4.734375	1.654347
4.734863	1.654373
4.735352	1.654050
4.735840	1.654549
4.736328	1.654537
4.736816	1.654350
4.737305	1.654239
4.737793	1.654125
4.738281	1.654159
4.738770	1.654452
4.739258	1.653937
4.739746	1.653833
4.740234	1.653973
4.740723	1.654060
4.741211	1.654016
4.741699	1.654304
4.742187	1.654034
4.742676	1.654057
4.743164	1.653912
4.743652	1.654007
4.744141	1.654075
4.744629	1.653965
4.745117	1.654065
4.745605	1.654119
4.746094	1.654275
4.746582	1.653882
4.747070	1.653912
4.747559	1.654052
4.748047	1.654046
4.748535	1.654032
4.749023	1.653980
4.749512	1.653887
4.750000	1.653930
4.750488	1.654025
4.750977	1.653885
4.751465	1.654020
4.751953	1.653744
4.752441	1.653799
4.752930	1.653759
4.753418	1.653826
4.753906	1.653769
4.754395	1.653845
4.754883	1.653757
4.755371	1.653769
4.755859	1.653774
4.756348	1.653790
4.756836	1.653764
4.757324	1.653728
4.757812	1.653993
4.758301	1.653719
4.758789	1.653938
4.759277	1.653835
4.759766	1.654099
4.760254	1.654103
4.760742	1.653993
4.761230	1.653810
4.761719	1.653592
4.762207	1.653981
4.762695	1.654421
4.763184	1.653668
4.763672	1.653755
4.764160	1.653982
4.764648	1.654102
4.765137	1.654051
4.765625	1.653918
4.766113	1.653659
4.766602	1.653688
4.767090	1.653800
4.767578	1.653883
4.768066	1.654116
4.768555	1.653966
4.769043	1.653844
4.769531	1.653935
4.770020	1.653963
4.770508	1.653885
4.770996	1.653750
4.771484	1.653899
4.771973	1.654004
4.772461	1.654101
4.772949	1.654129
4.773437	1.654204
4.773926	1.654228
4.774414	1.654292
4.774902	1.654038
4.775391	1.654042
4.775879	1.653985
4.776367	1.653951
4.776855	1.654139
4.777344	1.653923
4.777832	1.654318
4.778320	1.654067
4.778809	1.654103
4.779297	1.654195
4.779785	1.654140
4.780273	1.654113
4.780762	1.653650
4.781250	1.654129
4.781738	1.654636
4.782227	1.654160
4.782715	1.654011
4.783203	1.654167
4.783691	1.654327
4.784180	1.654408
4.784668	1.654288
4.785156	1.654342
4.785645	1.654250
4.786133	1.654299
4.786621	1.654403
4.787109	1.654619
4.787598	1.654309
4.788086	1.654229
4.788574	1.654328
4.789062	1.654484
4.789551	1.654289
4.790039	1.654305
4.790527	1.654075
4.791016	1.654336
4.791504	1.654438
4.791992	1.654311
4.792480	1.654433
4.792969	1.654270
4.793457	1.654502
4.793945	1.654418
4.794434	1.654516
4.794922	1.654562
4.795410	1.654378
4.795898	1.654430
4.796387	1.654500
4.796875	1.654698
4.797363	1.654695
4.797852	1.654702
4.798340	1.654666
4.798828	1.654633
4.799316	1.654558
4.799805	1.654464
4.800293	1.654560
4.800781	1.654636
4.801270	1.654618
4.801758	1.654671
4.802246	1.654533
4.802734	1.654414
4.803223	1.654532
4.803711	1.654633
4.804199	1.654312
4.804687	1.654306
4.805176	1.654583
4.805664	1.654471
4.806152	1.654767
4.806641	1.654308
4.807129	1.654463
4.807617	1.654589
4.808105	1.654415
4.808594	1.654557
4.809082	1.654380
4.809570	1.654281
4.810059	1.654257
4.810547	1.654594
4.811035	1.654474
4.811523	1.654536
4.812012	1.654611
4.812500	1.654715
4.812988	1.654559
4.813477	1.654298
4.813965	1.654574
4.814453	1.654942
4.814941	1.654699
4.815430	1.654464
4.815918	1.654741
4.816406	1.654824
4.816895	1.654727
4.817383	1.654914
4.817871	1.654627
4.818359	1.654623
4.818848	1.654462
4.819336	1.654613
4.819824	1.654837
4.820312	1.654737
4.820801	1.654514
4.821289	1.654488
4.821777	1.654501
4.822266	1.654610
4.822754	1.654726
4.823242	1.654719
4.823730	1.654424
4.824219	1.654492
4.824707	1.654696
4.825195	1.654727
4.825684	1.654665
4.826172	1.654431
4.826660	1.654528
4.827148	1.654662
4.827637	1.654737
4.828125	1.654583
4.828613	1.654544
4.829102	1.654513
4.829590	1.654643
4.830078	1.654597
4.830566	1.654594
4.831055	1.654383
4.831543	1.654275
4.832031	1.654296
4.832520	1.654463
4.833008	1.654283
4.833496	1.654222
4.833984	1.654275
4.834473	1.654577
4.834961	1.654259
4.835449	1.653940
4.835937	1.654209
4.836426	1.654431
4.836914	1.654233
4.837402	1.654170
4.837891	1.654270
4.838379	1.654193
4.838867	1.654131
4.839355	1.654334
4.839844	1.654137
4.840332	1.654194
4.840820	1.654204
4.841309	1.654220
4.841797	1.654440
4.842285	1.654247
4.842773	1.654140
4.843262	1.654273
4.843750	1.654278
4.844238	1.654061
4.844727	1.654278
4.845215	1.654090
4.845703	1.654179
4.846191	1.654388
4.846680	1.654192
4.847168	1.654201
4.847656	1.654011
4.848145	1.654076
4.848633	1.654210
4.849121	1.654145
4.849609	1.654082
4.850098	1.653943
4.850586	1.654058
4.851074	1.654188
4.851562	1.654242
4.852051	1.654236
4.852539	1.654112
4.853027	1.654201
4.853516	1.654112
4.854004	1.654380
4.854492	1.654357
4.854980	1.654370
4.855469	1.654329
4.855957	1.654505
4.856445	1.654577
4.856934	1.654471
4.857422	1.654702
4.857910	1.654583
4.858398	1.654536
4.858887	1.654539
4.859375	1.654316
4.859863	1.654562
4.860352	1.654359
4.860840	1.654308
4.861328	1.654286
4.861816	1.654325
4.862305	1.654308
4.862793	1.654593
4.863281	1.654414
4.863770	1.654348
4.864258	1.654306
4.864746	1.654400
4.865234	1.654588
4.865723	1.654549
4.866211	1.654544
4.866699	1.654434
4.867187	1.654669
4.867676	1.654729
4.868164	1.654732
4.868652	1.654712
4.869141	1.654610
4.869629	1.654694
4.870117	1.654804
4.870605	1.654545
4.871094	1.654473
4.871582	1.654693
4.872070	1.654779
4.872559	1.654957
4.873047	1.654813
4.873535	1.654907
4.874023	1.654731
4.874512	1.654550
4.875000	1.654790
4.875488	1.655120
4.875977	1.654881
4.876465	1.654564
4.876953	1.654778
4.877441	1.655043
4.877930	1.655061
4.878418	1.654940
4.878906	1.654915
4.879395	1.654849
4.879883	1.654950
4.880371	1.655024
4.880859	1.654995
4.881348	1.655025
4.881836	1.655065
4.882324	1.655242

